# An Atlas of Galaxy Spectral Energy Distributions from the Ultraviolet to the Mid-Infrared
# Brown et al. (2014)
# http://dx.doi.org/10.5072/03/529D3551F0117
# 
# Column 1 : Restframe Wavelength (Angstrom)
# Column 2 : Flux per unit wavelength (ergs/s/cm^2/Angstrom)
# Column 3 : Observed wavelength (Angstrom)
# Column 4 : Source (0 = model, 1 = Optical Spectrum, 2 = Akari, 3 = Spitzer IRS)
# 
   102.02 1.9193e-17    102.33 0 
   103.92 2.2602e-17    104.23 0 
   106.09 2.7174e-17    106.41 0 
   108.06 3.3431e-17    108.39 0 
   110.07 4.6575e-17    110.41 0 
   113.94 6.2828e-17    114.29 0 
   117.95 8.0196e-17    118.30 0 
   120.97 2.8586e-16    121.34 0 
   124.93 3.4131e-16    125.31 0 
   126.96 3.6237e-16    127.35 0 
   128.14 3.7945e-16    128.53 0 
   131.12 4.0940e-16    131.52 0 
   132.03 4.7880e-16    132.43 0 
   133.87 5.0021e-16    134.28 0 
   136.99 6.1681e-16    137.40 0 
   139.86 6.5789e-16    140.28 0 
   143.11 1.7830e-15    143.55 0 
   147.12 4.2379e-15    147.57 0 
   150.90 4.4274e-15    151.36 0 
   155.13 4.6682e-15    155.60 0 
   159.10 4.9448e-15    159.59 0 
   162.06 5.1304e-15    162.55 0 
   165.84 5.4595e-15    166.34 0 
   170.09 5.7036e-15    170.61 0 
   172.86 5.9177e-15    173.38 0 
   176.88 6.1681e-15    177.42 0 
   180.17 6.3409e-15    180.72 0 
   181.84 6.4886e-15    182.39 0 
   186.07 6.7321e-15    186.64 0 
   190.85 7.0494e-15    191.43 0 
   193.95 7.2971e-15    194.54 0 
   198.01 7.5189e-15    198.61 0 
   202.15 7.8010e-15    202.77 0 
   204.97 7.9827e-15    205.59 0 
   210.22 7.9278e-15    210.86 0 
   216.11 8.6527e-15    216.77 0 
   220.13 8.9362e-15    220.80 0 
   223.19 9.0189e-15    223.87 0 
   226.82 9.3358e-15    227.51 0 
   229.98 1.4001e-14    230.67 0 
   234.25 2.3289e-14    234.96 0 
   240.26 2.8129e-14    240.99 0 
   245.86 2.6131e-14    246.60 0 
   252.16 2.7237e-14    252.93 0 
   256.85 2.2654e-14    257.63 0 
   259.83 2.5832e-14    260.62 0 
   264.05 2.6739e-14    264.85 0 
   268.96 2.6312e-14    269.77 0 
   273.96 2.5832e-14    274.79 0 
   279.05 2.5360e-14    279.90 0 
   284.24 2.5012e-14    285.10 0 
   290.19 2.3450e-14    291.07 0 
   296.27 2.3397e-14    297.17 0 
   301.08 2.2707e-14    302.00 0 
   308.09 2.2498e-14    309.03 0 
   318.19 2.2190e-14    319.15 0 
   327.86 2.1436e-14    328.85 0 
   337.82 2.0566e-14    338.84 0 
   348.08 1.9731e-14    349.14 0 
   357.01 1.9105e-14    358.10 0 
   366.17 1.8670e-14    367.28 0 
   374.70 1.7995e-14    375.84 0 
   385.20 1.6717e-14    386.37 0 
   395.08 1.6678e-14    396.28 0 
   405.21 1.6186e-14    406.44 0 
   413.70 1.5601e-14    414.95 0 
   422.36 1.5002e-14    423.64 0 
   430.21 1.4493e-14    431.52 0 
   441.25 1.4001e-14    442.59 0 
   450.49 1.3401e-14    451.86 0 
   459.92 1.2857e-14    461.32 0 
   469.55 1.2364e-14    470.98 0 
   480.49 1.1999e-14    481.95 0 
   490.55 1.1380e-14    492.04 0 
   499.67 1.1147e-14    501.19 0 
   505.45 1.0768e-14    506.99 0 
   512.49 1.0969e-14    514.04 0 
   519.62 1.0645e-14    521.19 0 
   530.50 1.0143e-14    532.11 0 
   540.36 9.5533e-15    542.00 0 
   550.40 9.1443e-15    552.08 0 
   560.64 9.0814e-15    562.34 0 
   569.75 8.9362e-15    571.48 0 
   580.34 8.5340e-15    582.10 0 
   589.77 8.3205e-15    591.56 0 
   599.35 7.8370e-15    601.17 0 
   610.49 6.8258e-15    612.35 0 
   620.41 7.5362e-15    622.30 0 
   630.50 7.1970e-15    632.41 0 
   639.27 7.0819e-15    641.21 0 
   649.65 6.8101e-15    651.63 0 
   658.69 6.5336e-15    660.69 0 
   664.79 6.5186e-15    666.81 0 
   675.59 6.3702e-15    677.64 0 
   684.99 5.9724e-15    687.07 0 
   694.52 5.9724e-15    696.63 0 
   705.80 5.5610e-15    707.95 0 
   715.62 5.6383e-15    717.79 0 
   725.57 5.4721e-15    727.78 0 
   735.67 5.3475e-15    737.90 0 
   744.19 5.1541e-15    746.45 0 
   754.54 4.9906e-15    756.83 0 
   765.04 4.4787e-15    767.36 0 
   775.68 4.7114e-15    778.04 0 
   784.66 4.4787e-15    787.05 0 
   795.58 4.4376e-15    797.99 0 
   804.79 4.3466e-15    807.24 0 
   814.11 4.2379e-15    816.58 0 
   825.43 4.1414e-15    827.94 0 
   834.99 3.7770e-15    837.53 0 
   844.66 3.9098e-15    847.23 0 
   854.44 3.7945e-15    857.04 0 
   864.34 3.7167e-15    866.96 0 
   874.34 3.6488e-15    877.00 0 
   884.47 3.5576e-15    887.16 0 
   894.71 3.4766e-15    897.43 0 
   905.07 3.3741e-15    907.82 0 
   915.55 3.9369e-15    918.33 0 
   924.02 6.7632e-15    926.83 0 
   934.72 9.8890e-15    937.56 0 
   945.54 1.3371e-14    948.42 0 
   954.29 1.5928e-14    957.19 0 
   965.34 1.7067e-14    968.28 0 
   974.28 7.3816e-15    977.24 0 
   985.56 1.4493e-14    988.55 0 
   994.68 1.4493e-14    997.70 0 
  1003.88 1.8330e-14   1006.93 0 
  1015.51 1.7995e-14   1018.59 0 
  1024.90 1.0284e-14   1028.02 0 
  1034.38 1.4560e-14   1037.53 0 
  1043.96 2.1685e-14   1047.13 0 
  1056.04 2.1045e-14   1059.25 0 
  1065.82 1.7505e-14   1069.05 0 
  1075.68 1.9595e-14   1078.95 0 
  1085.63 1.5891e-14   1088.93 0 
  1095.68 2.0006e-14   1099.01 0 
  1105.81 1.9105e-14   1109.18 0 
  1116.05 1.8414e-14   1119.44 0 
  1123.78 1.6525e-14   1127.20 0 
  1134.18 1.9731e-14   1137.63 0 
  1144.67 1.8287e-14   1148.15 0 
  1155.27 1.8800e-14   1158.78 0 
  1165.96 1.8843e-14   1169.50 0 
  1174.04 1.3557e-14   1177.61 0 
  1184.90 1.7954e-14   1188.50 0 
  1195.87 1.4001e-14   1199.50 0 
  1204.15 1.1224e-14   1207.81 0 
  1215.30 8.1124e-15   1218.99 0 
  1223.72 1.3588e-14   1227.44 0 
  1235.04 1.7707e-14   1238.80 0 
  1243.60 1.8757e-14   1247.38 0 
  1255.11 1.7954e-14   1258.93 0 
  1263.81 1.6224e-14   1267.65 0 
  1275.51 1.9282e-14   1279.38 0 
  1284.35 1.9822e-14   1288.25 0 
  1296.23 1.6261e-14   1300.17 0 
  1305.22 1.6112e-14   1309.18 0 
  1314.26 1.9061e-14   1318.26 0 
  1326.42 1.8162e-14   1330.45 0 
  1335.62 1.6374e-14   1339.68 0 
  1344.88 1.8627e-14   1348.96 0 
  1354.20 1.8036e-14   1358.31 0 
  1363.58 1.6336e-14   1367.73 0 
  1376.20 1.6717e-14   1380.38 0 
  1385.74 1.6678e-14   1389.95 0 
  1395.35 1.4001e-14   1399.59 0 
  1405.02 1.4163e-14   1409.29 0 
  1414.76 1.5316e-14   1419.06 0 
  1424.56 1.5352e-14   1428.89 0 
  1434.44 1.5352e-14   1438.80 0 
  1441.06 1.5891e-14   1445.44 0 
  1447.71 1.6001e-14   1452.11 0 
  1454.39 1.5494e-14   1458.81 0 
  1464.48 1.4393e-14   1468.93 0 
  1474.63 1.4327e-14   1479.11 0 
  1484.85 1.4459e-14   1489.36 0 
  1495.14 1.4459e-14   1499.69 0 
  1505.50 1.3682e-14   1510.08 0 
  1512.45 1.2335e-14   1517.05 0 
  1515.94 1.2976e-14   1520.55 0 
  1526.45 1.2623e-14   1531.09 0 
  1533.49 1.1019e-14   1538.15 0 
  1544.12 1.1354e-14   1548.82 0 
  1554.83 1.0868e-14   1559.55 0 
  1565.61 1.1250e-14   1570.36 0 
  1576.46 1.1862e-14   1581.25 0 
  1583.73 1.2250e-14   1588.55 0 
  1594.71 1.2364e-14   1599.56 0 
  1605.77 1.2055e-14   1610.65 0 
  1613.18 1.1972e-14   1618.08 0 
  1624.36 1.1406e-14   1629.30 0 
  1635.62 1.1972e-14   1640.59 0 
  1643.17 1.2055e-14   1648.16 0 
  1654.56 1.1276e-14   1659.59 0 
  1666.03 1.2027e-14   1671.09 0 
  1673.72 1.0818e-14   1678.80 0 
  1677.58 1.2138e-14   1682.67 0 
  1685.32 1.2449e-14   1690.44 0 
  1693.10 1.1699e-14   1698.24 0 
  1704.83 1.1250e-14   1710.02 0 
  1716.65 1.0670e-14   1721.87 0 
  1724.58 1.0548e-14   1729.82 0 
  1736.53 1.1121e-14   1741.81 0 
  1744.55 1.0843e-14   1749.85 0 
  1756.64 1.1406e-14   1761.98 0 
  1764.75 1.0548e-14   1770.11 0 
  1776.98 1.0645e-14   1782.38 0 
  1785.18 1.0793e-14   1790.61 0 
  1793.42 1.1380e-14   1798.87 0 
  1805.85 1.1250e-14   1811.34 0 
  1814.19 1.0379e-14   1819.70 0 
  1826.76 1.0548e-14   1832.31 0 
  1835.20 1.0143e-14   1840.77 0 
  1843.67 9.2929e-15   1849.27 0 
  1856.45 9.3573e-15   1862.09 0 
  1865.01 9.6195e-15   1870.68 0 
  1873.62 1.0237e-14   1879.32 0 
  1886.61 9.4657e-15   1892.34 0 
  1895.32 9.1865e-15   1901.08 0 
  1904.07 9.6195e-15   1909.85 0 
  1912.86 9.2502e-15   1918.67 0 
  1926.11 8.9568e-15   1931.97 0 
  1935.01 8.9981e-15   1940.89 0 
  1943.94 9.6417e-15   1949.84 0 
  1952.91 9.0397e-15   1958.84 0 
  1966.45 9.9118e-15   1972.42 0 
  1975.52 1.0004e-14   1981.53 0 
  1984.64 9.6862e-15   1990.67 0 
  1993.80 9.4657e-15   1999.86 0 
  2003.01 9.6195e-15   2009.09 0 
  2016.89 9.4005e-15   2023.02 0 
  2026.20 9.4657e-15   2032.36 0 
  2035.55 9.3358e-15   2041.74 0 
  2044.95 9.7533e-15   2051.16 0 
  2054.39 9.1865e-15   2060.63 0 
  2063.87 9.2077e-15   2070.14 0 
  2073.40 9.9575e-15   2079.70 0 
  2078.18 1.2082e-14   2084.49 0 
  2082.97 1.3809e-14   2089.30 0 
  2097.40 1.2887e-14   2103.78 0 
  2107.09 1.2739e-14   2113.49 0 
  2116.81 1.3588e-14   2123.24 0 
  2126.58 1.2857e-14   2133.04 0 
  2136.40 1.2166e-14   2142.89 0 
  2146.26 1.4001e-14   2152.78 0 
  2156.17 1.4065e-14   2162.72 0 
  2166.12 1.2828e-14   2172.70 0 
  2176.12 1.2798e-14   2182.73 0 
  2186.16 1.4762e-14   2192.81 0 
  2196.25 1.4694e-14   2202.93 0 
  2206.39 1.4393e-14   2213.09 0 
  2216.57 1.2055e-14   2223.31 0 
  2226.80 1.3248e-14   2233.57 0 
  2237.08 1.6412e-14   2243.88 0 
  2247.41 1.5673e-14   2254.24 0 
  2252.59 1.2887e-14   2259.44 0 
  2262.99 1.2222e-14   2269.86 0 
  2273.43 1.3096e-14   2280.34 0 
  2283.93 1.6563e-14   2290.87 0 
  2294.47 1.4065e-14   2301.44 0 
  2305.06 1.6330e-14   2312.07 0 
  2315.70 1.4120e-14   2322.74 0 
  2326.39 1.1473e-14   2333.46 0 
  2337.13 1.1234e-14   2344.23 0 
  2342.51 8.9424e-15   2349.63 0 
  2353.33 1.3406e-14   2360.48 0 
  2364.19 9.4874e-15   2371.37 0 
  2375.10 1.1066e-14   2382.32 0 
  2386.06 8.2763e-15   2393.32 0 
  2397.08 9.4991e-15   2404.36 0 
  2402.60 9.4103e-15   2409.91 0 
  2413.69 1.0314e-14   2421.03 0 
  2424.83 1.5181e-14   2432.20 0 
  2436.03 1.5315e-14   2443.43 0 
  2447.27 1.7946e-14   2454.71 0 
  2452.91 1.8962e-14   2460.37 0 
  2464.23 1.6208e-14   2471.72 0 
  2475.61 1.4607e-14   2483.13 0 
  2487.04 9.8948e-15   2494.60 0 
  2492.77 1.1437e-14   2500.35 0 
  2504.28 1.6679e-14   2511.89 0 
  2515.83 9.0990e-15   2523.48 0 
  2527.45 8.3913e-15   2535.13 0 
  2533.27 1.2183e-14   2540.97 0 
  2544.97 1.2664e-14   2552.70 0 
  2556.71 2.2668e-14   2564.48 0 
  2562.61 1.6878e-14   2570.40 0 
  2574.44 2.1585e-14   2582.26 0 
  2586.32 1.9142e-14   2594.18 0 
  2592.28 1.7374e-14   2600.16 0 
  2604.25 1.5231e-14   2612.16 0 
  2616.27 1.3950e-14   2624.22 0 
  2622.30 1.8343e-14   2630.27 0 
  2634.40 3.2308e-14   2642.41 0 
  2646.56 4.3066e-14   2654.61 0 
  2652.66 6.2380e-14   2660.72 0 
  2664.91 3.7746e-14   2673.01 0 
  2677.21 4.3023e-14   2685.34 0 
  2683.38 5.0887e-14   2691.54 0 
  2695.77 3.6094e-14   2703.96 0 
  2701.98 4.5535e-14   2710.19 0 
  2714.45 3.2297e-14   2722.70 0 
  2726.98 2.4377e-14   2735.27 0 
  2733.27 3.1834e-14   2741.57 0 
  2745.88 1.8480e-14   2754.23 0 
  2752.21 2.4982e-14   2760.58 0 
  2764.92 3.2994e-14   2773.32 0 
  2777.68 3.4935e-14   2786.12 0 
  2784.08 2.1094e-14   2792.54 0 
  2796.93 1.0616e-14   2805.43 0 
  2803.38 1.2528e-14   2811.90 0 
  2816.32 3.0599e-14   2824.88 0 
  2822.81 4.5041e-14   2831.39 0 
  2835.84 4.2017e-14   2844.46 0 
  2842.38 2.8730e-14   2851.02 0 
  2855.50 1.6639e-14   2864.18 0 
  2862.08 4.1404e-14   2870.78 0 
  2875.29 5.9959e-14   2884.03 0 
  2881.92 5.3797e-14   2890.68 0 
  2895.22 6.8639e-14   2904.02 0 
  2908.59 9.5143e-14   2917.43 0 
  2928.75 8.1674e-14   2937.65 0 
  2949.05 7.4438e-14   2958.01 0 
  2969.49 7.7893e-14   2978.52 0 
  2990.08 7.9104e-14   2999.16 0 
  3010.80 7.8506e-14   3019.95 0 
  3031.67 8.5428e-14   3040.89 0 
  3052.69 8.8981e-14   3061.96 0 
  3066.78 9.9333e-14   3076.10 0 
  3088.03 9.6113e-14   3097.42 0 
  3109.44 1.1468e-13   3118.89 0 
  3130.99 1.0475e-13   3140.51 0 
  3152.70 1.0540e-13   3162.28 0 
  3167.25 1.1739e-13   3176.87 0 
  3189.20 9.9613e-14   3198.90 0 
  3211.31 1.1092e-13   3221.07 0 
  3233.57 9.1764e-14   3243.40 0 
  3248.50 1.3411e-13   3258.37 0 
  3271.01 1.5853e-13   3280.95 0 
  3293.69 1.5552e-13   3303.70 0 
  3308.89 1.4374e-13   3318.94 0 
  3324.16 1.3563e-13   3334.26 0 
  3331.82 1.4068e-13   3341.95 0 
  3339.51 1.1943e-13   3349.66 0 
  3347.20 1.5704e-13   3357.38 0 
  3354.92 1.5237e-13   3365.12 0 
  3362.65 1.0394e-13   3372.87 0 
  3370.41 1.2125e-13   3380.65 0 
  3378.18 1.4506e-13   3388.44 0 
  3385.96 1.3978e-13   3396.25 0 
  3393.77 1.4599e-13   3404.08 0 
  3401.59 1.7030e-13   3411.93 0 
  3409.43 1.4227e-13   3419.79 0 
  3417.29 1.2050e-13   3427.68 0 
  3425.17 1.5027e-13   3435.58 0 
  3433.07 1.7408e-13   3443.50 0 
  3440.98 1.3603e-13   3451.44 0 
  3448.91 1.1763e-13   3459.39 0 
  3456.86 1.4302e-13   3467.37 0 
  3464.83 1.2058e-13   3475.36 0 
  3472.82 1.5782e-13   3483.37 0 
  3480.82 1.2475e-13   3491.40 0 
  3488.85 1.4353e-13   3499.45 0 
  3496.89 1.3147e-13   3507.52 0 
  3504.95 1.6854e-13   3515.60 0 
  3513.03 1.5226e-13   3523.71 0 
  3521.13 1.7437e-13   3531.83 0 
  3529.25 1.1813e-13   3539.97 0 
  3537.38 1.6490e-13   3548.13 0 
  3545.54 1.6753e-13   3556.31 0 
  3553.71 1.7458e-13   3564.51 0 
  3561.90 1.5627e-13   3572.73 0 
  3570.11 1.2127e-13   3580.96 0 
  3578.35 1.4178e-13   3589.22 0 
  3586.59 9.8969e-14   3597.49 0 
  3594.86 1.4907e-13   3605.79 0 
  3603.15 1.8761e-13   3614.10 0 
  3611.45 1.2392e-13   3622.43 0 
  3619.78 1.6181e-13   3630.78 0 
  3628.13 1.8276e-13   3639.15 0 
  3636.49 1.4281e-13   3647.54 0 
  3638.94 1.9062e-13   3650.00 1 
  3640.94 1.8106e-13   3652.00 1 
  3642.93 1.7926e-13   3654.00 1 
  3644.92 1.8333e-13   3656.00 1 
  3646.92 1.8513e-13   3658.00 1 
  3648.91 1.7561e-13   3660.00 1 
  3650.90 1.7154e-13   3662.00 1 
  3652.90 1.7899e-13   3664.00 1 
  3654.89 1.9718e-13   3666.00 1 
  3656.89 2.0959e-13   3668.00 1 
  3658.88 2.0854e-13   3670.00 1 
  3660.87 2.0616e-13   3672.00 1 
  3662.87 2.0178e-13   3674.00 1 
  3664.86 2.1224e-13   3676.00 1 
  3666.86 2.1113e-13   3678.00 1 
  3668.85 2.1113e-13   3680.00 1 
  3670.84 2.0928e-13   3682.00 1 
  3672.84 2.0738e-13   3684.00 1 
  3674.83 2.0828e-13   3686.00 1 
  3676.83 1.9797e-13   3688.00 1 
  3678.82 1.9183e-13   3690.00 1 
  3680.81 1.8237e-13   3692.00 1 
  3682.81 1.8745e-13   3694.00 1 
  3684.80 1.9649e-13   3696.00 1 
  3686.80 2.0431e-13   3698.00 1 
  3688.79 2.0875e-13   3700.00 1 
  3690.78 2.1256e-13   3702.00 1 
  3692.78 2.1378e-13   3704.00 1 
  3694.77 2.1399e-13   3706.00 1 
  3696.77 2.1467e-13   3708.00 1 
  3698.76 2.1547e-13   3710.00 1 
  3700.75 2.1087e-13   3712.00 1 
  3702.75 2.0547e-13   3714.00 1 
  3704.74 1.9834e-13   3716.00 1 
  3706.74 1.9506e-13   3718.00 1 
  3708.73 1.9210e-13   3720.00 1 
  3710.72 1.9273e-13   3722.00 1 
  3712.72 1.9326e-13   3724.00 1 
  3714.71 2.0019e-13   3726.00 1 
  3716.70 1.9680e-13   3728.00 1 
  3718.70 1.8909e-13   3730.00 1 
  3720.69 1.7592e-13   3732.00 1 
  3722.69 1.7603e-13   3734.00 1 
  3724.68 1.7693e-13   3736.00 1 
  3726.67 1.7566e-13   3738.00 1 
  3728.67 1.6578e-13   3740.00 1 
  3730.66 1.6144e-13   3742.00 1 
  3732.66 1.5547e-13   3744.00 1 
  3734.65 1.5013e-13   3746.00 1 
  3736.64 1.4411e-13   3748.00 1 
  3738.64 1.4637e-13   3750.00 1 
  3740.63 1.5272e-13   3752.00 1 
  3742.63 1.5430e-13   3754.00 1 
  3744.62 1.4965e-13   3756.00 1 
  3746.61 1.4532e-13   3758.00 1 
  3748.61 1.4807e-13   3760.00 1 
  3750.60 1.5272e-13   3762.00 1 
  3752.60 1.6039e-13   3764.00 1 
  3754.59 1.5837e-13   3766.00 1 
  3756.58 1.5896e-13   3768.00 1 
  3758.58 1.6588e-13   3770.00 1 
  3760.57 1.7656e-13   3772.00 1 
  3762.57 1.8492e-13   3774.00 1 
  3764.56 1.8792e-13   3776.00 1 
  3766.55 1.9142e-13   3778.00 1 
  3768.55 1.8961e-13   3780.00 1 
  3770.54 1.9014e-13   3782.00 1 
  3772.54 1.9887e-13   3784.00 1 
  3774.53 2.1176e-13   3786.00 1 
  3776.52 2.1800e-13   3788.00 1 
  3778.52 2.1943e-13   3790.00 1 
  3780.51 2.1964e-13   3792.00 1 
  3782.50 2.2340e-13   3794.00 1 
  3784.50 2.1811e-13   3796.00 1 
  3786.49 2.0452e-13   3798.00 1 
  3788.49 1.8814e-13   3800.00 1 
  3790.48 1.7550e-13   3802.00 1 
  3792.47 1.7122e-13   3804.00 1 
  3794.47 1.6816e-13   3806.00 1 
  3796.46 1.6969e-13   3808.00 1 
  3798.46 1.7122e-13   3810.00 1 
  3800.45 1.7201e-13   3812.00 1 
  3802.44 1.7392e-13   3814.00 1 
  3804.44 1.8507e-13   3816.00 1 
  3806.43 1.9306e-13   3818.00 1 
  3808.43 1.8687e-13   3820.00 1 
  3810.42 1.8042e-13   3822.00 1 
  3812.41 1.6932e-13   3824.00 1 
  3814.41 1.7037e-13   3826.00 1 
  3816.40 1.6261e-13   3828.00 1 
  3818.40 1.6709e-13   3830.00 1 
  3820.39 1.6340e-13   3832.00 1 
  3822.38 1.5256e-13   3834.00 1 
  3824.38 1.3253e-13   3836.00 1 
  3826.37 1.1530e-13   3838.00 1 
  3828.37 1.1413e-13   3840.00 1 
  3830.36 1.1630e-13   3842.00 1 
  3832.35 1.2122e-13   3844.00 1 
  3834.35 1.2058e-13   3846.00 1 
  3836.34 1.2549e-13   3848.00 1 
  3838.34 1.2894e-13   3850.00 1 
  3840.33 1.3295e-13   3852.00 1 
  3842.32 1.3263e-13   3854.00 1 
  3844.32 1.4263e-13   3856.00 1 
  3846.31 1.5029e-13   3858.00 1 
  3848.31 1.5880e-13   3860.00 1 
  3850.30 1.5605e-13   3862.00 1 
  3852.29 1.5568e-13   3864.00 1 
  3854.29 1.4844e-13   3866.00 1 
  3856.28 1.4320e-13   3868.00 1 
  3858.27 1.4130e-13   3870.00 1 
  3860.27 1.4775e-13   3872.00 1 
  3862.26 1.5399e-13   3874.00 1 
  3864.26 1.5351e-13   3876.00 1 
  3866.25 1.5039e-13   3878.00 1 
  3868.24 1.5394e-13   3880.00 1 
  3870.24 1.5394e-13   3882.00 1 
  3872.23 1.5151e-13   3884.00 1 
  3874.23 1.4934e-13   3886.00 1 
  3876.22 1.4738e-13   3888.00 1 
  3878.21 1.4733e-13   3890.00 1 
  3880.21 1.4823e-13   3892.00 1 
  3882.20 1.5504e-13   3894.00 1 
  3884.20 1.5695e-13   3896.00 1 
  3886.19 1.5737e-13   3898.00 1 
  3888.18 1.6092e-13   3900.00 1 
  3890.18 1.7349e-13   3902.00 1 
  3892.17 1.9183e-13   3904.00 1 
  3894.17 2.0833e-13   3906.00 1 
  3896.16 2.2186e-13   3908.00 1 
  3898.15 2.2863e-13   3910.00 1 
  3900.15 2.3249e-13   3912.00 1 
  3902.14 2.2731e-13   3914.00 1 
  3904.14 2.2228e-13   3916.00 1 
  3906.13 2.1975e-13   3918.00 1 
  3908.12 2.2985e-13   3920.00 1 
  3910.12 2.3518e-13   3922.00 1 
  3912.11 2.3656e-13   3924.00 1 
  3914.11 2.3688e-13   3926.00 1 
  3916.10 2.2778e-13   3928.00 1 
  3918.09 2.1161e-13   3930.00 1 
  3920.09 1.9041e-13   3932.00 1 
  3922.08 1.7164e-13   3934.00 1 
  3924.07 1.5927e-13   3936.00 1 
  3926.07 1.4897e-13   3938.00 1 
  3928.06 1.3585e-13   3940.00 1 
  3930.06 1.2101e-13   3942.00 1 
  3932.05 1.0472e-13   3944.00 1 
  3934.04 9.9598e-14   3946.00 1 
  3936.04 1.0499e-13   3948.00 1 
  3938.03 1.1931e-13   3950.00 1 
  3940.03 1.4542e-13   3952.00 1 
  3942.02 1.6816e-13   3954.00 1 
  3944.01 1.8676e-13   3956.00 1 
  3946.01 1.9971e-13   3958.00 1 
  3948.00 2.1731e-13   3960.00 1 
  3950.00 2.3228e-13   3962.00 1 
  3951.99 2.3581e-13   3964.00 1 
  3953.98 2.2614e-13   3966.00 1 
  3955.98 2.0938e-13   3968.00 1 
  3957.97 1.8999e-13   3970.00 1 
  3959.97 1.7116e-13   3972.00 1 
  3961.96 1.5356e-13   3974.00 1 
  3963.95 1.3739e-13   3976.00 1 
  3965.95 1.2137e-13   3978.00 1 
  3967.94 1.0975e-13   3980.00 1 
  3969.94 1.2153e-13   3982.00 1 
  3971.93 1.4094e-13   3984.00 1 
  3973.92 1.7513e-13   3986.00 1 
  3975.92 2.0119e-13   3988.00 1 
  3977.91 2.3286e-13   3990.00 1 
  3979.91 2.5612e-13   3992.00 1 
  3981.90 2.7288e-13   3994.00 1 
  3983.89 2.8360e-13   3996.00 1 
  3985.89 2.8995e-13   3998.00 1 
  3987.88 3.0010e-13   4000.00 1 
  3989.87 3.0576e-13   4002.00 1 
  3991.87 3.0834e-13   4004.00 1 
  3993.86 3.0650e-13   4006.00 1 
  3995.86 3.0860e-13   4008.00 1 
  3997.85 3.1374e-13   4010.00 1 
  3999.84 3.1960e-13   4012.00 1 
  4001.84 3.2203e-13   4014.00 1 
  4003.83 3.2774e-13   4016.00 1 
  4005.83 3.2700e-13   4018.00 1 
  4007.82 3.2653e-13   4020.00 1 
  4009.81 3.2732e-13   4022.00 1 
  4011.81 3.3250e-13   4024.00 1 
  4013.80 3.4043e-13   4026.00 1 
  4015.80 3.4402e-13   4028.00 1 
  4017.79 3.4439e-13   4030.00 1 
  4019.78 3.3953e-13   4032.00 1 
  4021.78 3.3150e-13   4034.00 1 
  4023.77 3.2853e-13   4036.00 1 
  4025.77 3.2748e-13   4038.00 1 
  4027.76 3.1733e-13   4040.00 1 
  4029.75 3.0400e-13   4042.00 1 
  4031.75 2.9914e-13   4044.00 1 
  4033.74 3.2039e-13   4046.00 1 
  4035.74 3.3984e-13   4048.00 1 
  4037.73 3.4884e-13   4050.00 1 
  4039.72 3.4038e-13   4052.00 1 
  4041.72 3.2579e-13   4054.00 1 
  4043.71 3.0903e-13   4056.00 1 
  4045.71 3.0115e-13   4058.00 1 
  4047.70 3.0327e-13   4060.00 1 
  4049.69 3.1617e-13   4062.00 1 
  4051.69 3.2155e-13   4064.00 1 
  4053.68 3.2563e-13   4066.00 1 
  4055.67 3.2489e-13   4068.00 1 
  4057.67 3.1917e-13   4070.00 1 
  4059.66 3.1183e-13   4072.00 1 
  4061.66 3.0321e-13   4074.00 1 
  4063.65 3.0321e-13   4076.00 1 
  4065.64 3.1410e-13   4078.00 1 
  4067.64 3.1781e-13   4080.00 1 
  4069.63 3.1860e-13   4082.00 1 
  4071.63 3.1532e-13   4084.00 1 
  4073.62 3.1437e-13   4086.00 1 
  4075.61 3.1395e-13   4088.00 1 
  4077.61 3.1363e-13   4090.00 1 
  4079.60 3.2267e-13   4092.00 1 
  4081.60 3.3620e-13   4094.00 1 
  4083.59 3.5116e-13   4096.00 1 
  4085.58 3.5682e-13   4098.00 1 
  4087.58 3.6464e-13   4100.00 1 
  4089.57 3.6242e-13   4102.00 1 
  4091.57 3.6146e-13   4104.00 1 
  4093.56 3.4688e-13   4106.00 1 
  4095.55 3.3065e-13   4108.00 1 
  4097.55 3.1500e-13   4110.00 1 
  4099.54 3.0274e-13   4112.00 1 
  4101.54 2.9777e-13   4114.00 1 
  4103.53 2.9914e-13   4116.00 1 
  4105.52 3.0681e-13   4118.00 1 
  4107.52 3.1738e-13   4120.00 1 
  4109.51 3.2404e-13   4122.00 1 
  4111.51 3.3022e-13   4124.00 1 
  4113.50 3.3483e-13   4126.00 1 
  4115.49 3.3514e-13   4128.00 1 
  4117.49 3.3308e-13   4130.00 1 
  4119.48 3.2557e-13   4132.00 1 
  4121.47 3.2557e-13   4134.00 1 
  4123.47 3.3229e-13   4136.00 1 
  4125.46 3.3858e-13   4138.00 1 
  4127.46 3.3641e-13   4140.00 1 
  4129.45 3.2293e-13   4142.00 1 
  4131.44 3.1707e-13   4144.00 1 
  4133.44 3.1284e-13   4146.00 1 
  4135.43 3.1405e-13   4148.00 1 
  4137.43 3.0972e-13   4150.00 1 
  4139.42 3.0914e-13   4152.00 1 
  4141.41 3.0681e-13   4154.00 1 
  4143.41 3.0359e-13   4156.00 1 
  4145.40 3.0100e-13   4158.00 1 
  4147.40 2.9724e-13   4160.00 1 
  4149.39 2.9798e-13   4162.00 1 
  4151.38 3.0453e-13   4164.00 1 
  4153.38 3.0998e-13   4166.00 1 
  4155.37 3.1479e-13   4168.00 1 
  4157.37 3.1976e-13   4170.00 1 
  4159.36 3.2806e-13   4172.00 1 
  4161.35 3.3821e-13   4174.00 1 
  4163.35 3.4212e-13   4176.00 1 
  4165.34 3.4217e-13   4178.00 1 
  4167.34 3.3567e-13   4180.00 1 
  4169.33 3.2637e-13   4182.00 1 
  4171.32 3.1484e-13   4184.00 1 
  4173.32 3.1157e-13   4186.00 1 
  4175.31 3.0819e-13   4188.00 1 
  4177.31 3.1389e-13   4190.00 1 
  4179.30 3.1907e-13   4192.00 1 
  4181.29 3.3002e-13   4194.00 1 
  4183.29 3.3509e-13   4196.00 1 
  4185.28 3.3472e-13   4198.00 1 
  4187.27 3.3086e-13   4200.00 1 
  4189.27 3.2933e-13   4202.00 1 
  4191.26 3.3123e-13   4204.00 1 
  4193.26 3.3276e-13   4206.00 1 
  4195.25 3.3546e-13   4208.00 1 
  4197.24 3.2320e-13   4210.00 1 
  4199.24 3.1590e-13   4212.00 1 
  4201.23 3.1505e-13   4214.00 1 
  4203.23 3.2948e-13   4216.00 1 
  4205.22 3.3927e-13   4218.00 1 
  4207.21 3.4793e-13   4220.00 1 
  4209.21 3.5143e-13   4222.00 1 
  4211.20 3.5089e-13   4224.00 1 
  4213.20 3.4017e-13   4226.00 1 
  4215.19 3.3757e-13   4228.00 1 
  4217.18 3.4629e-13   4230.00 1 
  4219.18 3.5798e-13   4232.00 1 
  4221.17 3.5264e-13   4234.00 1 
  4223.17 3.3287e-13   4236.00 1 
  4225.16 3.0612e-13   4238.00 1 
  4227.15 2.9586e-13   4240.00 1 
  4229.15 3.0596e-13   4242.00 1 
  4231.14 3.2341e-13   4244.00 1 
  4233.14 3.3752e-13   4246.00 1 
  4235.13 3.4096e-13   4248.00 1 
  4237.12 3.4799e-13   4250.00 1 
  4239.12 3.5089e-13   4252.00 1 
  4241.11 3.6363e-13   4254.00 1 
  4243.11 3.7272e-13   4256.00 1 
  4245.10 3.7664e-13   4258.00 1 
  4247.09 3.6453e-13   4260.00 1 
  4249.09 3.5037e-13   4262.00 1 
  4251.08 3.3789e-13   4264.00 1 
  4253.07 3.3334e-13   4266.00 1 
  4255.07 3.3440e-13   4268.00 1 
  4257.06 3.3990e-13   4270.00 1 
  4259.06 3.4238e-13   4272.00 1 
  4261.05 3.4593e-13   4274.00 1 
  4263.04 3.5750e-13   4276.00 1 
  4265.04 3.6781e-13   4278.00 1 
  4267.03 3.5893e-13   4280.00 1 
  4269.03 3.3831e-13   4282.00 1 
  4271.02 3.1505e-13   4284.00 1 
  4273.01 3.0528e-13   4286.00 1 
  4275.01 3.1057e-13   4288.00 1 
  4277.00 3.2378e-13   4290.00 1 
  4279.00 3.4080e-13   4292.00 1 
  4280.99 3.4524e-13   4294.00 1 
  4282.98 3.4244e-13   4296.00 1 
  4284.98 3.3646e-13   4298.00 1 
  4286.97 3.2626e-13   4300.00 1 
  4288.97 3.1833e-13   4302.00 1 
  4290.96 3.0945e-13   4304.00 1 
  4292.95 3.1098e-13   4306.00 1 
  4294.95 3.0686e-13   4308.00 1 
  4296.94 2.9888e-13   4310.00 1 
  4298.94 2.7943e-13   4312.00 1 
  4300.93 2.6531e-13   4314.00 1 
  4302.92 2.5379e-13   4316.00 1 
  4304.92 2.4950e-13   4318.00 1 
  4306.91 2.5025e-13   4320.00 1 
  4308.91 2.5548e-13   4322.00 1 
  4310.90 2.7197e-13   4324.00 1 
  4312.89 3.0321e-13   4326.00 1 
  4314.89 3.4519e-13   4328.00 1 
  4316.88 3.8350e-13   4330.00 1 
  4318.87 4.0095e-13   4332.00 1 
  4320.87 3.9561e-13   4334.00 1 
  4322.86 3.7410e-13   4336.00 1 
  4324.86 3.5211e-13   4338.00 1 
  4326.85 3.4926e-13   4340.00 1 
  4328.84 3.6707e-13   4342.00 1 
  4330.84 3.8795e-13   4344.00 1 
  4332.83 4.0211e-13   4346.00 1 
  4334.83 3.9947e-13   4348.00 1 
  4336.82 3.8419e-13   4350.00 1 
  4338.81 3.5148e-13   4352.00 1 
  4340.81 3.2541e-13   4354.00 1 
  4342.80 3.3282e-13   4356.00 1 
  4344.80 3.8297e-13   4358.00 1 
  4346.79 4.2848e-13   4360.00 1 
  4348.78 4.3621e-13   4362.00 1 
  4350.78 4.0866e-13   4364.00 1 
  4352.77 3.8715e-13   4366.00 1 
  4354.77 3.8572e-13   4368.00 1 
  4356.76 3.9381e-13   4370.00 1 
  4358.75 4.0116e-13   4372.00 1 
  4360.75 4.1062e-13   4374.00 1 
  4362.74 4.2040e-13   4376.00 1 
  4364.74 4.2796e-13   4378.00 1 
  4366.73 4.2717e-13   4380.00 1 
  4368.72 4.1622e-13   4382.00 1 
  4370.72 4.0374e-13   4384.00 1 
  4372.71 3.9207e-13   4386.00 1 
  4374.71 3.8218e-13   4388.00 1 
  4376.70 3.7363e-13   4390.00 1 
  4378.69 3.7014e-13   4392.00 1 
  4380.69 3.6120e-13   4394.00 1 
  4382.68 3.5063e-13   4396.00 1 
  4384.67 3.3805e-13   4398.00 1 
  4386.67 3.3932e-13   4400.00 1 
  4388.66 3.5132e-13   4402.00 1 
  4390.66 3.6543e-13   4404.00 1 
  4392.65 3.8097e-13   4406.00 1 
  4394.64 3.9059e-13   4408.00 1 
  4396.64 3.9893e-13   4410.00 1 
  4398.63 4.0169e-13   4412.00 1 
  4400.63 3.9888e-13   4414.00 1 
  4402.62 3.8667e-13   4416.00 1 
  4404.61 3.7732e-13   4418.00 1 
  4406.61 3.7489e-13   4420.00 1 
  4408.60 3.8324e-13   4422.00 1 
  4410.60 4.0359e-13   4424.00 1 
  4412.59 4.2362e-13   4426.00 1 
  4414.58 4.3531e-13   4428.00 1 
  4416.58 4.3134e-13   4430.00 1 
  4418.57 4.2632e-13   4432.00 1 
  4420.57 4.2616e-13   4434.00 1 
  4422.56 4.2997e-13   4436.00 1 
  4424.55 4.3208e-13   4438.00 1 
  4426.55 4.3034e-13   4440.00 1 
  4428.54 4.2579e-13   4442.00 1 
  4430.54 4.2526e-13   4444.00 1 
  4432.53 4.2733e-13   4446.00 1 
  4434.52 4.2753e-13   4448.00 1 
  4436.52 4.2431e-13   4450.00 1 
  4438.51 4.2960e-13   4452.00 1 
  4440.51 4.3985e-13   4454.00 1 
  4442.50 4.4979e-13   4456.00 1 
  4444.49 4.5365e-13   4458.00 1 
  4446.49 4.5946e-13   4460.00 1 
  4448.48 4.6269e-13   4462.00 1 
  4450.48 4.6317e-13   4464.00 1 
  4452.47 4.5053e-13   4466.00 1 
  4454.46 4.3541e-13   4468.00 1 
  4456.46 4.1601e-13   4470.00 1 
  4458.45 4.0433e-13   4472.00 1 
  4460.44 4.0243e-13   4474.00 1 
  4462.44 4.1506e-13   4476.00 1 
  4464.43 4.2907e-13   4478.00 1 
  4466.43 4.3874e-13   4480.00 1 
  4468.42 4.4334e-13   4482.00 1 
  4470.41 4.5201e-13   4484.00 1 
  4472.41 4.6422e-13   4486.00 1 
  4474.40 4.7131e-13   4488.00 1 
  4476.40 4.7543e-13   4490.00 1 
  4478.39 4.7030e-13   4492.00 1 
  4480.38 4.6988e-13   4494.00 1 
  4482.38 4.7162e-13   4496.00 1 
  4484.37 4.7727e-13   4498.00 1 
  4486.37 4.7807e-13   4500.00 1 
  4488.36 4.7596e-13   4502.00 1 
  4490.35 4.7167e-13   4504.00 1 
  4492.35 4.6819e-13   4506.00 1 
  4494.34 4.5983e-13   4508.00 1 
  4496.34 4.6803e-13   4510.00 1 
  4498.33 4.7574e-13   4512.00 1 
  4500.32 4.8949e-13   4514.00 1 
  4502.32 4.9293e-13   4516.00 1 
  4504.31 5.0551e-13   4518.00 1 
  4506.31 5.1079e-13   4520.00 1 
  4508.30 5.1481e-13   4522.00 1 
  4510.29 5.0920e-13   4524.00 1 
  4512.29 5.0641e-13   4526.00 1 
  4514.28 5.0143e-13   4528.00 1 
  4516.28 4.9510e-13   4530.00 1 
  4518.27 4.9525e-13   4532.00 1 
  4520.26 4.9679e-13   4534.00 1 
  4522.26 4.9493e-13   4536.00 1 
  4524.25 4.7664e-13   4538.00 1 
  4526.24 4.5481e-13   4540.00 1 
  4528.24 4.3721e-13   4542.00 1 
  4530.23 4.3362e-13   4544.00 1 
  4532.23 4.3176e-13   4546.00 1 
  4534.22 4.3848e-13   4548.00 1 
  4536.21 4.5486e-13   4550.00 1 
  4538.21 4.7310e-13   4552.00 1 
  4540.20 4.8325e-13   4554.00 1 
  4542.20 4.7981e-13   4556.00 1 
  4544.19 4.7828e-13   4558.00 1 
  4546.18 4.7891e-13   4560.00 1 
  4548.18 4.7891e-13   4562.00 1 
  4550.17 4.7749e-13   4564.00 1 
  4552.17 4.7479e-13   4566.00 1 
  4554.16 4.8167e-13   4568.00 1 
  4556.15 4.9176e-13   4570.00 1 
  4558.15 5.0281e-13   4572.00 1 
  4560.14 5.1100e-13   4574.00 1 
  4562.14 5.1211e-13   4576.00 1 
  4564.13 5.1079e-13   4578.00 1 
  4566.12 5.0772e-13   4580.00 1 
  4568.12 5.0672e-13   4582.00 1 
  4570.11 5.0593e-13   4584.00 1 
  4572.11 5.0281e-13   4586.00 1 
  4574.10 5.0334e-13   4588.00 1 
  4576.09 5.0794e-13   4590.00 1 
  4578.09 5.0472e-13   4592.00 1 
  4580.08 4.9272e-13   4594.00 1 
  4582.08 4.8256e-13   4596.00 1 
  4584.07 4.8494e-13   4598.00 1 
  4586.06 4.9076e-13   4600.00 1 
  4588.06 4.9260e-13   4602.00 1 
  4590.05 4.9187e-13   4604.00 1 
  4592.04 4.9096e-13   4606.00 1 
  4594.04 4.8843e-13   4608.00 1 
  4596.03 4.8669e-13   4610.00 1 
  4598.03 4.8563e-13   4612.00 1 
  4600.02 4.8621e-13   4614.00 1 
  4602.01 4.8563e-13   4616.00 1 
  4604.01 4.8870e-13   4618.00 1 
  4606.00 4.9239e-13   4620.00 1 
  4608.00 5.0413e-13   4622.00 1 
  4609.99 5.1332e-13   4624.00 1 
  4611.98 5.2084e-13   4626.00 1 
  4613.98 5.2263e-13   4628.00 1 
  4615.97 5.2448e-13   4630.00 1 
  4617.97 5.2491e-13   4632.00 1 
  4619.96 5.2903e-13   4634.00 1 
  4621.95 5.3008e-13   4636.00 1 
  4623.95 5.3082e-13   4638.00 1 
  4625.94 5.2872e-13   4640.00 1 
  4627.94 5.3088e-13   4642.00 1 
  4629.93 5.3130e-13   4644.00 1 
  4631.92 5.2406e-13   4646.00 1 
  4633.92 5.1275e-13   4648.00 1 
  4635.91 5.0635e-13   4650.00 1 
  4637.91 4.9657e-13   4652.00 1 
  4639.90 4.9034e-13   4654.00 1 
  4641.89 4.8753e-13   4656.00 1 
  4643.89 4.8801e-13   4658.00 1 
  4645.88 4.8880e-13   4660.00 1 
  4647.88 4.8124e-13   4662.00 1 
  4649.87 4.8198e-13   4664.00 1 
  4651.86 4.8494e-13   4666.00 1 
  4653.86 4.9668e-13   4668.00 1 
  4655.85 4.9837e-13   4670.00 1 
  4657.84 5.0572e-13   4672.00 1 
  4659.84 5.1015e-13   4674.00 1 
  4661.83 5.1455e-13   4676.00 1 
  4663.83 4.9794e-13   4678.00 1 
  4665.82 4.7553e-13   4680.00 1 
  4667.81 4.6311e-13   4682.00 1 
  4669.81 4.6681e-13   4684.00 1 
  4671.80 4.7839e-13   4686.00 1 
  4673.80 4.8510e-13   4688.00 1 
  4675.79 4.8526e-13   4690.00 1 
  4677.78 4.8632e-13   4692.00 1 
  4679.78 4.8410e-13   4694.00 1 
  4681.77 4.8177e-13   4696.00 1 
  4683.77 4.7865e-13   4698.00 1 
  4685.76 4.7924e-13   4700.00 1 
  4687.75 4.8310e-13   4702.00 1 
  4689.75 4.8225e-13   4704.00 1 
  4691.74 4.8531e-13   4706.00 1 
  4693.74 4.8637e-13   4708.00 1 
  4695.73 4.8732e-13   4710.00 1 
  4697.72 4.8087e-13   4712.00 1 
  4699.72 4.7479e-13   4714.00 1 
  4701.71 4.7215e-13   4716.00 1 
  4703.71 4.6945e-13   4718.00 1 
  4705.70 4.7030e-13   4720.00 1 
  4707.69 4.7469e-13   4722.00 1 
  4709.69 4.7924e-13   4724.00 1 
  4711.68 4.8188e-13   4726.00 1 
  4713.68 4.8394e-13   4728.00 1 
  4715.67 4.9293e-13   4730.00 1 
  4717.66 5.0741e-13   4732.00 1 
  4719.66 5.1962e-13   4734.00 1 
  4721.65 5.2522e-13   4736.00 1 
  4723.64 5.2279e-13   4738.00 1 
  4725.64 5.1523e-13   4740.00 1 
  4727.63 5.0296e-13   4742.00 1 
  4729.63 4.9091e-13   4744.00 1 
  4731.62 4.8405e-13   4746.00 1 
  4733.61 4.8531e-13   4748.00 1 
  4735.61 4.9266e-13   4750.00 1 
  4737.60 5.0207e-13   4752.00 1 
  4739.60 5.1285e-13   4754.00 1 
  4741.59 5.2010e-13   4756.00 1 
  4743.58 5.2010e-13   4758.00 1 
  4745.58 5.1660e-13   4760.00 1 
  4747.57 5.1650e-13   4762.00 1 
  4749.57 5.1660e-13   4764.00 1 
  4751.56 5.1830e-13   4766.00 1 
  4753.55 5.1491e-13   4768.00 1 
  4755.55 5.1312e-13   4770.00 1 
  4757.54 5.1179e-13   4772.00 1 
  4759.54 5.0953e-13   4774.00 1 
  4761.53 5.0318e-13   4776.00 1 
  4763.52 4.9668e-13   4778.00 1 
  4765.52 4.9218e-13   4780.00 1 
  4767.51 4.8991e-13   4782.00 1 
  4769.51 4.8996e-13   4784.00 1 
  4771.50 4.9367e-13   4786.00 1 
  4773.49 5.0196e-13   4788.00 1 
  4775.49 5.0958e-13   4790.00 1 
  4777.48 5.1291e-13   4792.00 1 
  4779.48 5.1560e-13   4794.00 1 
  4781.47 5.1296e-13   4796.00 1 
  4783.46 5.0630e-13   4798.00 1 
  4785.46 4.9832e-13   4800.00 1 
  4787.45 4.9747e-13   4802.00 1 
  4789.44 5.0186e-13   4804.00 1 
  4791.44 5.0789e-13   4806.00 1 
  4793.43 5.1238e-13   4808.00 1 
  4795.43 5.1994e-13   4810.00 1 
  4797.42 5.2401e-13   4812.00 1 
  4799.41 5.2437e-13   4814.00 1 
  4801.41 5.2565e-13   4816.00 1 
  4803.40 5.2458e-13   4818.00 1 
  4805.40 5.2580e-13   4820.00 1 
  4807.39 5.2253e-13   4822.00 1 
  4809.38 5.2877e-13   4824.00 1 
  4811.38 5.2723e-13   4826.00 1 
  4813.37 5.2675e-13   4828.00 1 
  4815.37 5.2295e-13   4830.00 1 
  4817.36 5.2808e-13   4832.00 1 
  4819.35 5.3648e-13   4834.00 1 
  4821.35 5.3622e-13   4836.00 1 
  4823.34 5.2760e-13   4838.00 1 
  4825.34 5.1867e-13   4840.00 1 
  4827.33 5.1338e-13   4842.00 1 
  4829.32 5.1867e-13   4844.00 1 
  4831.32 5.1434e-13   4846.00 1 
  4833.31 5.1687e-13   4848.00 1 
  4835.31 5.1127e-13   4850.00 1 
  4837.30 5.1698e-13   4852.00 1 
  4839.29 5.1301e-13   4854.00 1 
  4841.29 5.1158e-13   4856.00 1 
  4843.28 5.0662e-13   4858.00 1 
  4845.28 5.0667e-13   4860.00 1 
  4847.27 5.1116e-13   4862.00 1 
  4849.26 5.1332e-13   4864.00 1 
  4851.26 5.1100e-13   4866.00 1 
  4853.25 5.0472e-13   4868.00 1 
  4855.24 4.9065e-13   4870.00 1 
  4857.24 4.7448e-13   4872.00 1 
  4859.23 4.5513e-13   4874.00 1 
  4861.23 4.4672e-13   4876.00 1 
  4863.22 4.4820e-13   4878.00 1 
  4865.21 4.5322e-13   4880.00 1 
  4867.21 4.6015e-13   4882.00 1 
  4869.20 4.6634e-13   4884.00 1 
  4871.20 4.7284e-13   4886.00 1 
  4873.19 4.7707e-13   4888.00 1 
  4875.18 4.8045e-13   4890.00 1 
  4877.18 4.8595e-13   4892.00 1 
  4879.17 4.9039e-13   4894.00 1 
  4881.17 4.9498e-13   4896.00 1 
  4883.16 4.9668e-13   4898.00 1 
  4885.15 4.9034e-13   4900.00 1 
  4887.15 4.8547e-13   4902.00 1 
  4889.14 4.8558e-13   4904.00 1 
  4891.14 4.9361e-13   4906.00 1 
  4893.13 5.0392e-13   4908.00 1 
  4895.12 5.1375e-13   4910.00 1 
  4897.12 5.2432e-13   4912.00 1 
  4899.11 5.2982e-13   4914.00 1 
  4901.11 5.3146e-13   4916.00 1 
  4903.10 5.2844e-13   4918.00 1 
  4905.09 5.2147e-13   4920.00 1 
  4907.09 5.1396e-13   4922.00 1 
  4909.08 5.1486e-13   4924.00 1 
  4911.08 5.2142e-13   4926.00 1 
  4913.07 5.2173e-13   4928.00 1 
  4915.06 5.0979e-13   4930.00 1 
  4917.06 4.9065e-13   4932.00 1 
  4919.05 4.8315e-13   4934.00 1 
  4921.04 4.8077e-13   4936.00 1 
  4923.04 4.8722e-13   4938.00 1 
  4925.03 4.9520e-13   4940.00 1 
  4927.03 5.1058e-13   4942.00 1 
  4929.02 5.2527e-13   4944.00 1 
  4931.01 5.3019e-13   4946.00 1 
  4933.01 5.2279e-13   4948.00 1 
  4935.00 5.1587e-13   4950.00 1 
  4937.00 5.1243e-13   4952.00 1 
  4938.99 5.1687e-13   4954.00 1 
  4940.98 5.2004e-13   4956.00 1 
  4942.98 5.2580e-13   4958.00 1 
  4944.97 5.3284e-13   4960.00 1 
  4946.97 5.3585e-13   4962.00 1 
  4948.96 5.4129e-13   4964.00 1 
  4950.95 5.4108e-13   4966.00 1 
  4952.95 5.3522e-13   4968.00 1 
  4954.94 5.1920e-13   4970.00 1 
  4956.94 5.0698e-13   4972.00 1 
  4958.93 5.0112e-13   4974.00 1 
  4960.92 5.0075e-13   4976.00 1 
  4962.92 5.0424e-13   4978.00 1 
  4964.91 5.0472e-13   4980.00 1 
  4966.91 5.0720e-13   4982.00 1 
  4968.90 5.0936e-13   4984.00 1 
  4970.89 5.1439e-13   4986.00 1 
  4972.89 5.1496e-13   4988.00 1 
  4974.88 5.1158e-13   4990.00 1 
  4976.88 5.0519e-13   4992.00 1 
  4978.87 4.9853e-13   4994.00 1 
  4980.86 4.8267e-13   4996.00 1 
  4982.86 4.7415e-13   4998.00 1 
  4984.85 4.6734e-13   5000.00 1 
  4986.84 4.7474e-13   5002.00 1 
  4988.84 4.7733e-13   5004.00 1 
  4990.83 4.8642e-13   5006.00 1 
  4992.83 4.9170e-13   5008.00 1 
  4994.82 4.9657e-13   5010.00 1 
  4996.81 4.9451e-13   5012.00 1 
  4998.81 4.8717e-13   5014.00 1 
  5000.80 4.7987e-13   5016.00 1 
  5002.80 4.7263e-13   5018.00 1 
  5004.79 4.6555e-13   5020.00 1 
  5006.78 4.6317e-13   5022.00 1 
  5008.78 4.6115e-13   5024.00 1 
  5010.77 4.6010e-13   5026.00 1 
  5012.77 4.5846e-13   5028.00 1 
  5014.76 4.5608e-13   5030.00 1 
  5016.75 4.5655e-13   5032.00 1 
  5018.75 4.5851e-13   5034.00 1 
  5020.74 4.6401e-13   5036.00 1 
  5022.74 4.7183e-13   5038.00 1 
  5024.73 4.7749e-13   5040.00 1 
  5026.72 4.8024e-13   5042.00 1 
  5028.72 4.8072e-13   5044.00 1 
  5030.71 4.8357e-13   5046.00 1 
  5032.71 4.8484e-13   5048.00 1 
  5034.70 4.8277e-13   5050.00 1 
  5036.69 4.7511e-13   5052.00 1 
  5038.69 4.6676e-13   5054.00 1 
  5040.68 4.6136e-13   5056.00 1 
  5042.68 4.6237e-13   5058.00 1 
  5044.67 4.6866e-13   5060.00 1 
  5046.66 4.7321e-13   5062.00 1 
  5048.66 4.7279e-13   5064.00 1 
  5050.65 4.7458e-13   5066.00 1 
  5052.65 4.8362e-13   5068.00 1 
  5054.64 4.9372e-13   5070.00 1 
  5056.63 5.0096e-13   5072.00 1 
  5058.63 5.0117e-13   5074.00 1 
  5060.62 4.9715e-13   5076.00 1 
  5062.61 4.9187e-13   5078.00 1 
  5064.61 4.8515e-13   5080.00 1 
  5066.60 4.7913e-13   5082.00 1 
  5068.60 4.7479e-13   5084.00 1 
  5070.59 4.7696e-13   5086.00 1 
  5072.58 4.8024e-13   5088.00 1 
  5074.58 4.7743e-13   5090.00 1 
  5076.57 4.6951e-13   5092.00 1 
  5078.57 4.6855e-13   5094.00 1 
  5080.56 4.6676e-13   5096.00 1 
  5082.55 4.6565e-13   5098.00 1 
  5084.55 4.6427e-13   5100.00 1 
  5086.54 4.6951e-13   5102.00 1 
  5088.54 4.7691e-13   5104.00 1 
  5090.53 4.7765e-13   5106.00 1 
  5092.52 4.8034e-13   5108.00 1 
  5094.52 4.7817e-13   5110.00 1 
  5096.51 4.7596e-13   5112.00 1 
  5098.51 4.7014e-13   5114.00 1 
  5100.50 4.6538e-13   5116.00 1 
  5102.49 4.6184e-13   5118.00 1 
  5104.49 4.5296e-13   5120.00 1 
  5106.48 4.5841e-13   5122.00 1 
  5108.48 4.6528e-13   5124.00 1 
  5110.47 4.7368e-13   5126.00 1 
  5112.46 4.7405e-13   5128.00 1 
  5114.46 4.7913e-13   5130.00 1 
  5116.45 4.9218e-13   5132.00 1 
  5118.45 4.9953e-13   5134.00 1 
  5120.44 4.9356e-13   5136.00 1 
  5122.43 4.7786e-13   5138.00 1 
  5124.43 4.6174e-13   5140.00 1 
  5126.42 4.5333e-13   5142.00 1 
  5128.41 4.4884e-13   5144.00 1 
  5130.41 4.5307e-13   5146.00 1 
  5132.40 4.6379e-13   5148.00 1 
  5134.40 4.7189e-13   5150.00 1 
  5136.39 4.6596e-13   5152.00 1 
  5138.38 4.5629e-13   5154.00 1 
  5140.38 4.5560e-13   5156.00 1 
  5142.37 4.6015e-13   5158.00 1 
  5144.37 4.6379e-13   5160.00 1 
  5146.36 4.6481e-13   5162.00 1 
  5148.35 4.6808e-13   5164.00 1 
  5150.35 4.6819e-13   5166.00 1 
  5152.34 4.6528e-13   5168.00 1 
  5154.34 4.6258e-13   5170.00 1 
  5156.33 4.6227e-13   5172.00 1 
  5158.32 4.6100e-13   5174.00 1 
  5160.32 4.5460e-13   5176.00 1 
  5162.31 4.4286e-13   5178.00 1 
  5164.31 4.2960e-13   5180.00 1 
  5166.30 4.2014e-13   5182.00 1 
  5168.29 4.0618e-13   5184.00 1 
  5170.29 3.8340e-13   5186.00 1 
  5172.28 3.6644e-13   5188.00 1 
  5174.28 3.6791e-13   5190.00 1 
  5176.27 3.8393e-13   5192.00 1 
  5178.26 3.9228e-13   5194.00 1 
  5180.26 3.9619e-13   5196.00 1 
  5182.25 4.0555e-13   5198.00 1 
  5184.25 4.3028e-13   5200.00 1 
  5186.24 4.6575e-13   5202.00 1 
  5188.23 4.9293e-13   5204.00 1 
  5190.23 4.9515e-13   5206.00 1 
  5192.22 4.7336e-13   5208.00 1 
  5194.21 4.5814e-13   5210.00 1 
  5196.21 4.5931e-13   5212.00 1 
  5198.20 4.6887e-13   5214.00 1 
  5200.20 4.7014e-13   5216.00 1 
  5202.19 4.6528e-13   5218.00 1 
  5204.18 4.6041e-13   5220.00 1 
  5206.18 4.5862e-13   5222.00 1 
  5208.17 4.6041e-13   5224.00 1 
  5210.17 4.6269e-13   5226.00 1 
  5212.16 4.6808e-13   5228.00 1 
  5214.15 4.8019e-13   5230.00 1 
  5216.15 4.9779e-13   5232.00 1 
  5218.14 5.0614e-13   5234.00 1 
  5220.14 5.0387e-13   5236.00 1 
  5222.13 5.0323e-13   5238.00 1 
  5224.12 5.0794e-13   5240.00 1 
  5226.12 5.0662e-13   5242.00 1 
  5228.11 4.9435e-13   5244.00 1 
  5230.11 4.9044e-13   5246.00 1 
  5232.10 4.9446e-13   5248.00 1 
  5234.09 5.0228e-13   5250.00 1 
  5236.09 5.0493e-13   5252.00 1 
  5238.08 5.0868e-13   5254.00 1 
  5240.08 5.2004e-13   5256.00 1 
  5242.07 5.3622e-13   5258.00 1 
  5244.06 5.5181e-13   5260.00 1 
  5246.06 5.5060e-13   5262.00 1 
  5248.05 5.3194e-13   5264.00 1 
  5250.05 5.0994e-13   5266.00 1 
  5252.04 5.0006e-13   5268.00 1 
  5254.03 5.0244e-13   5270.00 1 
  5256.03 5.1079e-13   5272.00 1 
  5258.02 5.1936e-13   5274.00 1 
  5260.01 5.2644e-13   5276.00 1 
  5262.01 5.2073e-13   5278.00 1 
  5264.00 5.0165e-13   5280.00 1 
  5266.00 4.7844e-13   5282.00 1 
  5267.99 4.6068e-13   5284.00 1 
  5269.98 4.5450e-13   5286.00 1 
  5271.98 4.5655e-13   5288.00 1 
  5273.97 4.6708e-13   5290.00 1 
  5275.97 4.7712e-13   5292.00 1 
  5277.96 4.9198e-13   5294.00 1 
  5279.95 5.1650e-13   5296.00 1 
  5281.95 5.3675e-13   5298.00 1 
  5283.94 5.4579e-13   5300.00 1 
  5285.94 5.4441e-13   5302.00 1 
  5287.93 5.4822e-13   5304.00 1 
  5289.92 5.5234e-13   5306.00 1 
  5291.92 5.5419e-13   5308.00 1 
  5293.91 5.5525e-13   5310.00 1 
  5295.91 5.5551e-13   5312.00 1 
  5297.90 5.5472e-13   5314.00 1 
  5299.89 5.4774e-13   5316.00 1 
  5301.89 5.3765e-13   5318.00 1 
  5303.88 5.3670e-13   5320.00 1 
  5305.88 5.4706e-13   5322.00 1 
  5307.87 5.6402e-13   5324.00 1 
  5309.86 5.7211e-13   5326.00 1 
  5311.86 5.6883e-13   5328.00 1 
  5313.85 5.6085e-13   5330.00 1 
  5315.85 5.5244e-13   5332.00 1 
  5317.84 5.4711e-13   5334.00 1 
  5319.83 5.4504e-13   5336.00 1 
  5321.83 5.4134e-13   5338.00 1 
  5323.82 5.3405e-13   5340.00 1 
  5325.81 5.2221e-13   5342.00 1 
  5327.81 5.0873e-13   5344.00 1 
  5329.80 5.0096e-13   5346.00 1 
  5331.80 5.0086e-13   5348.00 1 
  5333.79 5.0635e-13   5350.00 1 
  5335.78 5.1666e-13   5352.00 1 
  5337.78 5.2654e-13   5354.00 1 
  5339.77 5.3210e-13   5356.00 1 
  5341.77 5.3241e-13   5358.00 1 
  5343.76 5.3156e-13   5360.00 1 
  5345.75 5.3537e-13   5362.00 1 
  5347.75 5.3891e-13   5364.00 1 
  5349.74 5.4087e-13   5366.00 1 
  5351.74 5.4224e-13   5368.00 1 
  5353.73 5.4663e-13   5370.00 1 
  5355.72 5.5572e-13   5372.00 1 
  5357.72 5.6323e-13   5374.00 1 
  5359.71 5.6402e-13   5376.00 1 
  5361.71 5.5684e-13   5378.00 1 
  5363.70 5.5080e-13   5380.00 1 
  5365.69 5.4891e-13   5382.00 1 
  5367.69 5.4763e-13   5384.00 1 
  5369.68 5.4610e-13   5386.00 1 
  5371.68 5.4018e-13   5388.00 1 
  5373.67 5.3368e-13   5390.00 1 
  5375.66 5.3120e-13   5392.00 1 
  5377.66 5.3701e-13   5394.00 1 
  5379.65 5.4547e-13   5396.00 1 
  5381.65 5.4906e-13   5398.00 1 
  5383.64 5.5128e-13   5400.00 1 
  5385.63 5.5208e-13   5402.00 1 
  5387.63 5.4975e-13   5404.00 1 
  5389.62 5.4219e-13   5406.00 1 
  5391.61 5.3353e-13   5408.00 1 
  5393.61 5.2803e-13   5410.00 1 
  5395.60 5.2686e-13   5412.00 1 
  5397.60 5.2723e-13   5414.00 1 
  5399.59 5.2120e-13   5416.00 1 
  5401.58 5.1163e-13   5418.00 1 
  5403.58 5.0651e-13   5420.00 1 
  5405.57 5.1190e-13   5422.00 1 
  5407.57 5.1777e-13   5424.00 1 
  5409.56 5.1846e-13   5426.00 1 
  5411.55 5.1719e-13   5428.00 1 
  5413.55 5.2078e-13   5430.00 1 
  5415.54 5.2675e-13   5432.00 1 
  5417.54 5.3225e-13   5434.00 1 
  5419.53 5.3812e-13   5436.00 1 
  5421.52 5.4277e-13   5438.00 1 
  5423.52 5.4420e-13   5440.00 1 
  5425.51 5.3992e-13   5442.00 1 
  5427.51 5.3268e-13   5444.00 1 
  5429.50 5.2437e-13   5446.00 1 
  5431.49 5.1629e-13   5448.00 1 
  5433.49 5.1243e-13   5450.00 1 
  5435.48 5.1713e-13   5452.00 1 
  5437.48 5.2617e-13   5454.00 1 
  5439.47 5.2977e-13   5456.00 1 
  5441.46 5.2565e-13   5458.00 1 
  5443.46 5.3886e-13   5460.00 1 
  5445.45 5.5958e-13   5462.00 1 
  5447.45 5.6994e-13   5464.00 1 
  5449.44 5.5530e-13   5466.00 1 
  5451.43 5.3727e-13   5468.00 1 
  5453.43 5.2939e-13   5470.00 1 
  5455.42 5.2432e-13   5472.00 1 
  5457.41 5.2306e-13   5474.00 1 
  5459.41 5.2385e-13   5476.00 1 
  5461.40 5.2379e-13   5478.00 1 
  5463.40 5.1793e-13   5480.00 1 
  5465.39 5.1455e-13   5482.00 1 
  5467.38 5.1936e-13   5484.00 1 
  5469.38 5.3061e-13   5486.00 1 
  5471.37 5.4055e-13   5488.00 1 
  5473.37 5.4362e-13   5490.00 1 
  5475.36 5.3791e-13   5492.00 1 
  5477.35 5.2437e-13   5494.00 1 
  5479.35 5.0736e-13   5496.00 1 
  5481.34 5.0244e-13   5498.00 1 
  5483.34 5.1163e-13   5500.00 1 
  5485.33 5.2532e-13   5502.00 1 
  5487.32 5.3373e-13   5504.00 1 
  5489.32 5.3426e-13   5506.00 1 
  5491.31 5.3627e-13   5508.00 1 
  5493.31 5.4003e-13   5510.00 1 
  5495.30 5.3891e-13   5512.00 1 
  5497.29 5.3590e-13   5514.00 1 
  5499.29 5.3500e-13   5516.00 1 
  5501.28 5.4251e-13   5518.00 1 
  5503.28 5.4674e-13   5520.00 1 
  5505.27 5.3860e-13   5522.00 1 
  5507.26 5.2591e-13   5524.00 1 
  5509.26 5.2051e-13   5526.00 1 
  5511.25 5.2115e-13   5528.00 1 
  5513.25 5.2200e-13   5530.00 1 
  5515.24 5.2327e-13   5532.00 1 
  5517.23 5.2877e-13   5534.00 1 
  5519.23 5.4034e-13   5536.00 1 
  5521.22 5.5006e-13   5538.00 1 
  5523.21 5.4832e-13   5540.00 1 
  5525.21 5.3997e-13   5542.00 1 
  5527.20 5.3405e-13   5544.00 1 
  5529.20 5.3944e-13   5546.00 1 
  5531.19 5.4901e-13   5548.00 1 
  5533.18 5.5006e-13   5550.00 1 
  5535.18 5.4330e-13   5552.00 1 
  5537.17 5.3992e-13   5554.00 1 
  5539.17 5.4763e-13   5556.00 1 
  5541.16 5.5879e-13   5558.00 1 
  5543.15 5.5752e-13   5560.00 1 
  5545.15 5.4558e-13   5562.00 1 
  5547.14 5.3410e-13   5564.00 1 
  5549.14 5.3506e-13   5566.00 1 
  5551.13 5.3400e-13   5568.00 1 
  5553.12 5.3384e-13   5570.00 1 
  5555.12 5.2844e-13   5572.00 1 
  5557.11 5.3025e-13   5574.00 1 
  5559.11 5.3210e-13   5576.00 1 
  5561.10 5.3389e-13   5578.00 1 
  5563.09 5.3569e-13   5580.00 1 
  5565.09 5.3754e-13   5582.00 1 
  5567.08 5.3934e-13   5584.00 1 
  5569.08 5.4118e-13   5586.00 1 
  5571.07 5.4298e-13   5588.00 1 
  5573.06 5.4589e-13   5590.00 1 
  5575.06 5.4721e-13   5592.00 1 
  5577.05 5.5249e-13   5594.00 1 
  5579.05 5.5985e-13   5596.00 1 
  5581.04 5.6260e-13   5598.00 1 
  5583.03 5.5504e-13   5600.00 1 
  5585.03 5.4267e-13   5602.00 1 
  5587.02 5.3601e-13   5604.00 1 
  5589.01 5.2956e-13   5606.00 1 
  5591.01 5.2179e-13   5608.00 1 
  5593.00 5.1534e-13   5610.00 1 
  5595.00 5.1708e-13   5612.00 1 
  5596.99 5.2295e-13   5614.00 1 
  5598.98 5.3067e-13   5616.00 1 
  5600.98 5.3934e-13   5618.00 1 
  5602.97 5.4816e-13   5620.00 1 
  5604.97 5.5699e-13   5622.00 1 
  5606.96 5.6640e-13   5624.00 1 
  5608.95 5.7613e-13   5626.00 1 
  5610.95 5.7999e-13   5628.00 1 
  5612.94 5.7449e-13   5630.00 1 
  5614.94 5.6217e-13   5632.00 1 
  5616.93 5.5054e-13   5634.00 1 
  5618.92 5.4510e-13   5636.00 1 
  5620.92 5.4330e-13   5638.00 1 
  5622.91 5.3997e-13   5640.00 1 
  5624.91 5.3426e-13   5642.00 1 
  5626.90 5.3347e-13   5644.00 1 
  5628.89 5.4151e-13   5646.00 1 
  5630.89 5.5255e-13   5648.00 1 
  5632.88 5.5477e-13   5650.00 1 
  5634.88 5.5155e-13   5652.00 1 
  5636.87 5.4768e-13   5654.00 1 
  5638.86 5.4605e-13   5656.00 1 
  5640.86 5.4377e-13   5658.00 1 
  5642.85 5.4129e-13   5660.00 1 
  5644.85 5.4208e-13   5662.00 1 
  5646.84 5.4420e-13   5664.00 1 
  5648.83 5.4901e-13   5666.00 1 
  5650.83 5.5234e-13   5668.00 1 
  5652.82 5.5192e-13   5670.00 1 
  5654.82 5.5107e-13   5672.00 1 
  5656.81 5.4642e-13   5674.00 1 
  5658.80 5.4166e-13   5676.00 1 
  5660.80 5.3754e-13   5678.00 1 
  5662.79 5.3421e-13   5680.00 1 
  5664.78 5.3489e-13   5682.00 1 
  5666.78 5.3806e-13   5684.00 1 
  5668.77 5.4943e-13   5686.00 1 
  5670.77 5.6175e-13   5688.00 1 
  5672.76 5.6910e-13   5690.00 1 
  5674.75 5.7111e-13   5692.00 1 
  5676.75 5.6592e-13   5694.00 1 
  5678.74 5.6185e-13   5696.00 1 
  5680.74 5.6064e-13   5698.00 1 
  5682.73 5.6011e-13   5700.00 1 
  5684.72 5.5551e-13   5702.00 1 
  5686.72 5.4880e-13   5704.00 1 
  5688.71 5.4579e-13   5706.00 1 
  5690.71 5.4282e-13   5708.00 1 
  5692.70 5.4134e-13   5710.00 1 
  5694.69 5.4684e-13   5712.00 1 
  5696.69 5.5916e-13   5714.00 1 
  5698.68 5.6608e-13   5716.00 1 
  5700.68 5.6503e-13   5718.00 1 
  5702.67 5.5477e-13   5720.00 1 
  5704.66 5.4124e-13   5722.00 1 
  5706.66 5.3246e-13   5724.00 1 
  5708.65 5.2707e-13   5726.00 1 
  5710.65 5.2675e-13   5728.00 1 
  5712.64 5.2803e-13   5730.00 1 
  5714.63 5.3484e-13   5732.00 1 
  5716.63 5.4763e-13   5734.00 1 
  5718.62 5.5979e-13   5736.00 1 
  5720.62 5.7206e-13   5738.00 1 
  5722.61 5.7766e-13   5740.00 1 
  5724.60 5.7687e-13   5742.00 1 
  5726.60 5.7496e-13   5744.00 1 
  5728.59 5.7697e-13   5746.00 1 
  5730.58 5.7808e-13   5748.00 1 
  5732.58 5.7454e-13   5750.00 1 
  5734.57 5.7518e-13   5752.00 1 
  5736.57 5.7761e-13   5754.00 1 
  5738.56 5.7687e-13   5756.00 1 
  5740.55 5.7015e-13   5758.00 1 
  5742.55 5.6809e-13   5760.00 1 
  5744.54 5.6556e-13   5762.00 1 
  5746.54 5.5837e-13   5764.00 1 
  5748.53 5.5012e-13   5766.00 1 
  5750.52 5.5318e-13   5768.00 1 
  5752.52 5.6492e-13   5770.00 1 
  5754.51 5.7258e-13   5772.00 1 
  5756.51 5.7058e-13   5774.00 1 
  5758.50 5.6571e-13   5776.00 1 
  5760.49 5.6323e-13   5778.00 1 
  5762.49 5.6370e-13   5780.00 1 
  5764.48 5.6598e-13   5782.00 1 
  5766.48 5.6978e-13   5784.00 1 
  5768.47 5.7734e-13   5786.00 1 
  5770.46 5.8781e-13   5788.00 1 
  5772.46 5.9711e-13   5790.00 1 
  5774.45 6.0018e-13   5792.00 1 
  5776.45 5.9421e-13   5794.00 1 
  5778.44 5.8273e-13   5796.00 1 
  5780.43 5.6698e-13   5798.00 1 
  5782.43 5.5006e-13   5800.00 1 
  5784.42 5.3955e-13   5802.00 1 
  5786.42 5.4531e-13   5804.00 1 
  5788.41 5.5768e-13   5806.00 1 
  5790.40 5.6402e-13   5808.00 1 
  5792.40 5.6096e-13   5810.00 1 
  5794.39 5.6789e-13   5812.00 1 
  5796.38 5.8073e-13   5814.00 1 
  5798.38 5.8728e-13   5816.00 1 
  5800.37 5.8247e-13   5818.00 1 
  5802.37 5.8215e-13   5820.00 1 
  5804.36 5.9030e-13   5822.00 1 
  5806.35 5.9484e-13   5824.00 1 
  5808.35 5.9120e-13   5826.00 1 
  5810.34 5.8485e-13   5828.00 1 
  5812.34 5.8401e-13   5830.00 1 
  5814.33 5.8702e-13   5832.00 1 
  5816.32 5.8639e-13   5834.00 1 
  5818.32 5.8130e-13   5836.00 1 
  5820.31 5.7602e-13   5838.00 1 
  5822.31 5.7877e-13   5840.00 1 
  5824.30 5.8844e-13   5842.00 1 
  5826.29 5.9764e-13   5844.00 1 
  5828.29 6.0150e-13   5846.00 1 
  5830.28 6.0118e-13   5848.00 1 
  5832.28 5.9954e-13   5850.00 1 
  5834.27 5.9764e-13   5852.00 1 
  5836.26 5.9442e-13   5854.00 1 
  5838.26 5.9489e-13   5856.00 1 
  5840.25 5.9664e-13   5858.00 1 
  5842.25 5.9590e-13   5860.00 1 
  5844.24 5.9019e-13   5862.00 1 
  5846.23 5.8680e-13   5864.00 1 
  5848.23 5.8728e-13   5866.00 1 
  5850.22 5.8744e-13   5868.00 1 
  5852.22 5.8596e-13   5870.00 1 
  5854.21 5.7628e-13   5872.00 1 
  5856.20 5.6106e-13   5874.00 1 
  5858.20 5.4822e-13   5876.00 1 
  5860.19 5.5134e-13   5878.00 1 
  5862.18 5.5810e-13   5880.00 1 
  5864.18 5.4716e-13   5882.00 1 
  5866.17 5.1930e-13   5884.00 1 
  5868.17 5.1544e-13   5886.00 1 
  5870.16 5.3711e-13   5888.00 1 
  5872.15 5.6561e-13   5890.00 1 
  5874.15 5.8929e-13   5892.00 1 
  5876.14 5.9077e-13   5894.00 1 
  5878.14 5.8194e-13   5896.00 1 
  5880.13 5.6539e-13   5898.00 1 
  5882.12 5.5799e-13   5900.00 1 
  5884.12 5.5345e-13   5902.00 1 
  5886.11 5.3098e-13   5904.00 1 
  5888.11 5.0376e-13   5906.00 1 
  5890.10 4.7760e-13   5908.00 1 
  5892.09 4.5518e-13   5910.00 1 
  5894.09 4.3895e-13   5912.00 1 
  5896.08 4.3636e-13   5914.00 1 
  5898.08 4.5021e-13   5916.00 1 
  5900.07 4.7479e-13   5918.00 1 
  5902.06 5.0075e-13   5920.00 1 
  5904.06 5.2173e-13   5922.00 1 
  5906.05 5.3585e-13   5924.00 1 
  5908.05 5.4563e-13   5926.00 1 
  5910.04 5.5287e-13   5928.00 1 
  5912.03 5.5689e-13   5930.00 1 
  5914.03 5.6032e-13   5932.00 1 
  5916.02 5.6577e-13   5934.00 1 
  5918.02 5.7406e-13   5936.00 1 
  5920.01 5.7359e-13   5938.00 1 
  5922.00 5.6429e-13   5940.00 1 
  5924.00 5.5832e-13   5942.00 1 
  5925.99 5.6370e-13   5944.00 1 
  5927.98 5.6825e-13   5946.00 1 
  5929.98 5.6101e-13   5948.00 1 
  5931.97 5.5424e-13   5950.00 1 
  5933.97 5.5815e-13   5952.00 1 
  5935.96 5.6868e-13   5954.00 1 
  5937.95 5.7296e-13   5956.00 1 
  5939.95 5.7338e-13   5958.00 1 
  5941.94 5.7380e-13   5960.00 1 
  5943.94 5.7554e-13   5962.00 1 
  5945.93 5.7560e-13   5964.00 1 
  5947.92 5.7602e-13   5966.00 1 
  5949.92 5.7322e-13   5968.00 1 
  5951.91 5.6725e-13   5970.00 1 
  5953.91 5.6239e-13   5972.00 1 
  5955.90 5.5953e-13   5974.00 1 
  5957.89 5.6212e-13   5976.00 1 
  5959.89 5.6841e-13   5978.00 1 
  5961.88 5.7771e-13   5980.00 1 
  5963.88 5.7877e-13   5982.00 1 
  5965.87 5.7222e-13   5984.00 1 
  5967.86 5.7094e-13   5986.00 1 
  5969.86 5.7401e-13   5988.00 1 
  5971.85 5.7380e-13   5990.00 1 
  5973.85 5.6513e-13   5992.00 1 
  5975.84 5.6090e-13   5994.00 1 
  5977.83 5.5974e-13   5996.00 1 
  5979.83 5.6185e-13   5998.00 1 
  5981.82 5.6503e-13   6000.00 1 
  5983.82 5.6598e-13   6002.00 1 
  5985.81 5.6397e-13   6004.00 1 
  5987.80 5.6053e-13   6006.00 1 
  5989.80 5.6318e-13   6008.00 1 
  5991.79 5.6587e-13   6010.00 1 
  5993.78 5.6666e-13   6012.00 1 
  5995.78 5.6582e-13   6014.00 1 
  5997.77 5.6365e-13   6016.00 1 
  5999.77 5.6085e-13   6018.00 1 
  6001.76 5.5884e-13   6020.00 1 
  6003.75 5.6016e-13   6022.00 1 
  6005.75 5.6085e-13   6024.00 1 
  6007.74 5.5789e-13   6026.00 1 
  6009.74 5.5561e-13   6028.00 1 
  6011.73 5.5974e-13   6030.00 1 
  6013.72 5.6677e-13   6032.00 1 
  6015.72 5.7396e-13   6034.00 1 
  6017.71 5.7422e-13   6036.00 1 
  6019.71 5.6693e-13   6038.00 1 
  6021.70 5.6101e-13   6040.00 1 
  6023.69 5.5641e-13   6042.00 1 
  6025.69 5.5461e-13   6044.00 1 
  6027.68 5.5392e-13   6046.00 1 
  6029.68 5.6006e-13   6048.00 1 
  6031.67 5.7354e-13   6050.00 1 
  6033.66 5.8004e-13   6052.00 1 
  6035.66 5.7587e-13   6054.00 1 
  6037.65 5.7338e-13   6056.00 1 
  6039.65 5.7967e-13   6058.00 1 
  6041.64 5.8775e-13   6060.00 1 
  6043.63 5.9368e-13   6062.00 1 
  6045.63 5.9452e-13   6064.00 1 
  6047.62 5.9616e-13   6066.00 1 
  6049.62 5.9875e-13   6068.00 1 
  6051.61 6.0171e-13   6070.00 1 
  6053.60 6.0361e-13   6072.00 1 
  6055.60 5.9811e-13   6074.00 1 
  6057.59 5.8834e-13   6076.00 1 
  6059.58 5.8368e-13   6078.00 1 
  6061.58 5.8707e-13   6080.00 1 
  6063.57 5.9268e-13   6082.00 1 
  6065.57 5.9601e-13   6084.00 1 
  6067.56 5.9611e-13   6086.00 1 
  6069.55 5.9701e-13   6088.00 1 
  6071.55 5.9727e-13   6090.00 1 
  6073.54 5.9664e-13   6092.00 1 
  6075.54 5.9209e-13   6094.00 1 
  6077.53 5.8184e-13   6096.00 1 
  6079.52 5.7391e-13   6098.00 1 
  6081.52 5.7264e-13   6100.00 1 
  6083.51 5.7761e-13   6102.00 1 
  6085.51 5.7940e-13   6104.00 1 
  6087.50 5.7851e-13   6106.00 1 
  6089.49 5.7946e-13   6108.00 1 
  6091.49 5.8427e-13   6110.00 1 
  6093.48 5.9035e-13   6112.00 1 
  6095.48 5.9283e-13   6114.00 1 
  6097.47 5.9315e-13   6116.00 1 
  6099.46 5.9458e-13   6118.00 1 
  6101.46 5.9146e-13   6120.00 1 
  6103.45 5.8570e-13   6122.00 1 
  6105.45 5.7904e-13   6124.00 1 
  6107.44 5.7792e-13   6126.00 1 
  6109.43 5.8078e-13   6128.00 1 
  6111.43 5.8110e-13   6130.00 1 
  6113.42 5.7946e-13   6132.00 1 
  6115.42 5.7803e-13   6134.00 1 
  6117.41 5.7592e-13   6136.00 1 
  6119.40 5.7121e-13   6138.00 1 
  6121.40 5.6085e-13   6140.00 1 
  6123.39 5.5461e-13   6142.00 1 
  6125.38 5.5604e-13   6144.00 1 
  6127.38 5.6370e-13   6146.00 1 
  6129.37 5.7364e-13   6148.00 1 
  6131.37 5.8332e-13   6150.00 1 
  6133.36 5.9082e-13   6152.00 1 
  6135.35 5.9273e-13   6154.00 1 
  6137.35 5.8997e-13   6156.00 1 
  6139.34 5.8580e-13   6158.00 1 
  6141.34 5.8258e-13   6160.00 1 
  6143.33 5.8184e-13   6162.00 1 
  6145.32 5.8226e-13   6164.00 1 
  6147.32 5.7846e-13   6166.00 1 
  6149.31 5.7073e-13   6168.00 1 
  6151.31 5.6434e-13   6170.00 1 
  6153.30 5.6106e-13   6172.00 1 
  6155.29 5.5731e-13   6174.00 1 
  6157.29 5.4742e-13   6176.00 1 
  6159.28 5.3627e-13   6178.00 1 
  6161.28 5.2718e-13   6180.00 1 
  6163.27 5.2115e-13   6182.00 1 
  6165.26 5.1861e-13   6184.00 1 
  6167.26 5.2506e-13   6186.00 1 
  6169.25 5.3453e-13   6188.00 1 
  6171.25 5.4315e-13   6190.00 1 
  6173.24 5.5128e-13   6192.00 1 
  6175.23 5.5694e-13   6194.00 1 
  6177.23 5.5847e-13   6196.00 1 
  6179.22 5.5456e-13   6198.00 1 
  6181.22 5.5794e-13   6200.00 1 
  6183.21 5.6328e-13   6202.00 1 
  6185.20 5.6328e-13   6204.00 1 
  6187.20 5.5583e-13   6206.00 1 
  6189.19 5.4716e-13   6208.00 1 
  6191.18 5.4034e-13   6210.00 1 
  6193.18 5.3558e-13   6212.00 1 
  6195.17 5.3743e-13   6214.00 1 
  6197.17 5.4050e-13   6216.00 1 
  6199.16 5.4287e-13   6218.00 1 
  6201.15 5.4531e-13   6220.00 1 
  6203.15 5.5102e-13   6222.00 1 
  6205.14 5.5482e-13   6224.00 1 
  6207.14 5.5065e-13   6226.00 1 
  6209.13 5.4108e-13   6228.00 1 
  6211.12 5.3384e-13   6230.00 1 
  6213.12 5.3172e-13   6232.00 1 
  6215.11 5.3405e-13   6234.00 1 
  6217.11 5.3870e-13   6236.00 1 
  6219.10 5.4451e-13   6238.00 1 
  6221.09 5.4827e-13   6240.00 1 
  6223.09 5.4599e-13   6242.00 1 
  6225.08 5.3881e-13   6244.00 1 
  6227.08 5.2934e-13   6246.00 1 
  6229.07 5.2015e-13   6248.00 1 
  6231.06 5.1132e-13   6250.00 1 
  6233.06 5.0275e-13   6252.00 1 
  6235.05 4.9879e-13   6254.00 1 
  6237.05 5.0355e-13   6256.00 1 
  6239.04 5.1787e-13   6258.00 1 
  6241.03 5.3220e-13   6260.00 1 
  6243.03 5.3627e-13   6262.00 1 
  6245.02 5.2924e-13   6264.00 1 
  6247.02 5.2221e-13   6266.00 1 
  6249.01 5.2322e-13   6268.00 1 
  6251.00 5.2934e-13   6270.00 1 
  6253.00 5.2945e-13   6272.00 1 
  6254.99 5.2073e-13   6274.00 1 
  6256.99 5.0672e-13   6276.00 1 
  6258.98 4.9472e-13   6278.00 1 
  6260.97 4.8933e-13   6280.00 1 
  6262.97 4.9393e-13   6282.00 1 
  6264.96 5.0777e-13   6284.00 1 
  6266.95 5.2543e-13   6286.00 1 
  6268.95 5.3918e-13   6288.00 1 
  6270.94 5.4198e-13   6290.00 1 
  6272.94 5.3960e-13   6292.00 1 
  6274.93 5.3617e-13   6294.00 1 
  6276.92 5.3706e-13   6296.00 1 
  6278.92 5.3801e-13   6298.00 1 
  6280.91 5.3896e-13   6300.00 1 
  6282.91 5.3992e-13   6302.00 1 
  6284.90 5.4087e-13   6304.00 1 
  6286.89 5.4182e-13   6306.00 1 
  6288.89 5.4277e-13   6308.00 1 
  6290.88 5.4816e-13   6310.00 1 
  6292.88 5.5239e-13   6312.00 1 
  6294.87 5.5192e-13   6314.00 1 
  6296.86 5.4679e-13   6316.00 1 
  6298.86 5.4267e-13   6318.00 1 
  6300.85 5.4351e-13   6320.00 1 
  6302.85 5.4525e-13   6322.00 1 
  6304.84 5.4779e-13   6324.00 1 
  6306.83 5.4848e-13   6326.00 1 
  6308.83 5.5039e-13   6328.00 1 
  6310.82 5.5561e-13   6330.00 1 
  6312.82 5.5996e-13   6332.00 1 
  6314.81 5.5646e-13   6334.00 1 
  6316.80 5.4558e-13   6336.00 1 
  6318.80 5.3770e-13   6338.00 1 
  6320.79 5.3622e-13   6340.00 1 
  6322.79 5.3738e-13   6342.00 1 
  6324.78 5.3918e-13   6344.00 1 
  6326.77 5.4621e-13   6346.00 1 
  6328.77 5.5715e-13   6348.00 1 
  6330.76 5.6651e-13   6350.00 1 
  6332.75 5.6402e-13   6352.00 1 
  6334.75 5.5821e-13   6354.00 1 
  6336.74 5.5255e-13   6356.00 1 
  6338.74 5.5249e-13   6358.00 1 
  6340.73 5.5239e-13   6360.00 1 
  6342.72 5.5234e-13   6362.00 1 
  6344.72 5.5223e-13   6364.00 1 
  6346.71 5.5218e-13   6366.00 1 
  6348.71 5.5208e-13   6368.00 1 
  6350.70 5.5203e-13   6370.00 1 
  6352.69 5.5192e-13   6372.00 1 
  6354.69 5.5187e-13   6374.00 1 
  6356.68 5.4843e-13   6376.00 1 
  6358.68 5.4351e-13   6378.00 1 
  6360.67 5.4077e-13   6380.00 1 
  6362.66 5.4462e-13   6382.00 1 
  6364.66 5.5244e-13   6384.00 1 
  6366.65 5.6080e-13   6386.00 1 
  6368.65 5.6714e-13   6388.00 1 
  6370.64 5.6989e-13   6390.00 1 
  6372.63 5.7032e-13   6392.00 1 
  6374.63 5.7201e-13   6394.00 1 
  6376.62 5.7692e-13   6396.00 1 
  6378.62 5.7961e-13   6398.00 1 
  6380.61 5.7751e-13   6400.00 1 
  6382.60 5.7253e-13   6402.00 1 
  6384.60 5.6851e-13   6404.00 1 
  6386.59 5.6191e-13   6406.00 1 
  6388.59 5.5657e-13   6408.00 1 
  6390.58 5.5630e-13   6410.00 1 
  6392.57 5.6170e-13   6412.00 1 
  6394.57 5.6370e-13   6414.00 1 
  6396.56 5.6058e-13   6416.00 1 
  6398.55 5.5996e-13   6418.00 1 
  6400.55 5.6709e-13   6420.00 1 
  6402.54 5.7682e-13   6422.00 1 
  6404.54 5.8284e-13   6424.00 1 
  6406.53 5.8406e-13   6426.00 1 
  6408.52 5.8327e-13   6428.00 1 
  6410.52 5.8041e-13   6430.00 1 
  6412.51 5.7449e-13   6432.00 1 
  6414.51 5.6868e-13   6434.00 1 
  6416.50 5.6878e-13   6436.00 1 
  6418.49 5.7079e-13   6438.00 1 
  6420.49 5.6809e-13   6440.00 1 
  6422.48 5.6132e-13   6442.00 1 
  6424.48 5.5577e-13   6444.00 1 
  6426.47 5.5704e-13   6446.00 1 
  6428.46 5.6165e-13   6448.00 1 
  6430.46 5.6582e-13   6450.00 1 
  6432.45 5.6777e-13   6452.00 1 
  6434.45 5.6646e-13   6454.00 1 
  6436.44 5.6439e-13   6456.00 1 
  6438.43 5.6239e-13   6458.00 1 
  6440.43 5.6275e-13   6460.00 1 
  6442.42 5.6661e-13   6462.00 1 
  6444.42 5.7037e-13   6464.00 1 
  6446.41 5.7301e-13   6466.00 1 
  6448.40 5.7449e-13   6468.00 1 
  6450.40 5.7597e-13   6470.00 1 
  6452.39 5.7433e-13   6472.00 1 
  6454.39 5.7106e-13   6474.00 1 
  6456.38 5.6925e-13   6476.00 1 
  6458.37 5.6963e-13   6478.00 1 
  6460.37 5.6925e-13   6480.00 1 
  6462.36 5.6709e-13   6482.00 1 
  6464.35 5.6492e-13   6484.00 1 
  6466.35 5.6392e-13   6486.00 1 
  6468.34 5.6302e-13   6488.00 1 
  6470.34 5.6132e-13   6490.00 1 
  6472.33 5.5948e-13   6492.00 1 
  6474.32 5.5968e-13   6494.00 1 
  6476.32 5.6561e-13   6496.00 1 
  6478.31 5.7846e-13   6498.00 1 
  6480.31 5.9532e-13   6500.00 1 
  6482.30 6.0890e-13   6502.00 1 
  6484.29 6.0705e-13   6504.00 1 
  6486.29 5.8908e-13   6506.00 1 
  6488.28 5.7168e-13   6508.00 1 
  6490.28 5.6117e-13   6510.00 1 
  6492.27 5.5773e-13   6512.00 1 
  6494.26 5.4980e-13   6514.00 1 
  6496.26 5.3632e-13   6516.00 1 
  6498.25 5.2945e-13   6518.00 1 
  6500.25 5.3262e-13   6520.00 1 
  6502.24 5.4430e-13   6522.00 1 
  6504.23 5.5742e-13   6524.00 1 
  6506.23 5.6170e-13   6526.00 1 
  6508.22 5.6032e-13   6528.00 1 
  6510.22 5.5894e-13   6530.00 1 
  6512.21 5.6392e-13   6532.00 1 
  6514.20 5.7967e-13   6534.00 1 
  6516.20 5.9484e-13   6536.00 1 
  6518.19 5.9283e-13   6538.00 1 
  6520.19 5.8009e-13   6540.00 1 
  6522.18 5.6984e-13   6542.00 1 
  6524.17 5.7623e-13   6544.00 1 
  6526.17 5.8406e-13   6546.00 1 
  6528.16 5.8104e-13   6548.00 1 
  6530.15 5.7338e-13   6550.00 1 
  6532.15 5.7433e-13   6552.00 1 
  6534.14 5.8416e-13   6554.00 1 
  6536.14 5.9315e-13   6556.00 1 
  6538.13 5.9262e-13   6558.00 1 
  6540.12 5.8686e-13   6560.00 1 
  6542.12 5.8210e-13   6562.00 1 
  6544.11 5.8184e-13   6564.00 1 
  6546.11 5.8226e-13   6566.00 1 
  6548.10 5.7634e-13   6568.00 1 
  6550.09 5.6687e-13   6570.00 1 
  6552.09 5.5842e-13   6572.00 1 
  6554.08 5.5239e-13   6574.00 1 
  6556.08 5.4896e-13   6576.00 1 
  6558.07 5.4700e-13   6578.00 1 
  6560.06 5.4816e-13   6580.00 1 
  6562.06 5.4315e-13   6582.00 1 
  6564.05 5.3204e-13   6584.00 1 
  6566.05 5.2210e-13   6586.00 1 
  6568.04 5.2073e-13   6588.00 1 
  6570.03 5.2512e-13   6590.00 1 
  6572.03 5.3220e-13   6592.00 1 
  6574.02 5.4187e-13   6594.00 1 
  6576.02 5.5361e-13   6596.00 1 
  6578.01 5.6413e-13   6598.00 1 
  6580.00 5.7032e-13   6600.00 1 
  6582.00 5.7306e-13   6602.00 1 
  6583.99 5.7628e-13   6604.00 1 
  6585.99 5.8136e-13   6606.00 1 
  6587.98 5.8527e-13   6608.00 1 
  6589.97 5.8232e-13   6610.00 1 
  6591.97 5.7433e-13   6612.00 1 
  6593.96 5.6635e-13   6614.00 1 
  6595.95 5.6444e-13   6616.00 1 
  6597.95 5.7015e-13   6618.00 1 
  6599.94 5.7549e-13   6620.00 1 
  6601.94 5.7666e-13   6622.00 1 
  6603.93 5.7375e-13   6624.00 1 
  6605.92 5.7053e-13   6626.00 1 
  6607.92 5.6873e-13   6628.00 1 
  6609.91 5.6772e-13   6630.00 1 
  6611.91 5.7127e-13   6632.00 1 
  6613.90 5.7523e-13   6634.00 1 
  6615.89 5.7708e-13   6636.00 1 
  6617.89 5.7723e-13   6638.00 1 
  6619.88 5.7840e-13   6640.00 1 
  6621.88 5.8009e-13   6642.00 1 
  6623.87 5.7909e-13   6644.00 1 
  6625.86 5.7554e-13   6646.00 1 
  6627.86 5.7411e-13   6648.00 1 
  6629.85 5.7465e-13   6650.00 1 
  6631.85 5.7475e-13   6652.00 1 
  6633.84 5.7053e-13   6654.00 1 
  6635.83 5.6619e-13   6656.00 1 
  6637.83 5.6318e-13   6658.00 1 
  6639.82 5.6175e-13   6660.00 1 
  6641.82 5.6551e-13   6662.00 1 
  6643.81 5.7332e-13   6664.00 1 
  6645.80 5.8125e-13   6666.00 1 
  6647.80 5.8247e-13   6668.00 1 
  6649.79 5.8078e-13   6670.00 1 
  6651.79 5.7824e-13   6672.00 1 
  6653.78 5.7518e-13   6674.00 1 
  6655.77 5.7174e-13   6676.00 1 
  6657.77 5.6952e-13   6678.00 1 
  6659.76 5.6862e-13   6680.00 1 
  6661.75 5.6735e-13   6682.00 1 
  6663.75 5.6592e-13   6684.00 1 
  6665.74 5.6365e-13   6686.00 1 
  6667.74 5.6165e-13   6688.00 1 
  6669.73 5.6154e-13   6690.00 1 
  6671.72 5.6434e-13   6692.00 1 
  6673.72 5.6613e-13   6694.00 1 
  6675.71 5.6471e-13   6696.00 1 
  6677.71 5.6354e-13   6698.00 1 
  6679.70 5.6640e-13   6700.00 1 
  6681.69 5.7047e-13   6702.00 1 
  6683.69 5.7068e-13   6704.00 1 
  6685.68 5.6936e-13   6706.00 1 
  6687.68 5.6856e-13   6708.00 1 
  6689.67 5.6772e-13   6710.00 1 
  6691.66 5.6392e-13   6712.00 1 
  6693.66 5.6375e-13   6714.00 1 
  6695.65 5.6582e-13   6716.00 1 
  6697.65 5.6720e-13   6718.00 1 
  6699.64 5.6539e-13   6720.00 1 
  6701.63 5.6413e-13   6722.00 1 
  6703.63 5.6397e-13   6724.00 1 
  6705.62 5.6265e-13   6726.00 1 
  6707.62 5.6561e-13   6728.00 1 
  6709.61 5.7296e-13   6730.00 1 
  6711.60 5.7751e-13   6732.00 1 
  6713.60 5.6994e-13   6734.00 1 
  6715.59 5.5668e-13   6736.00 1 
  6717.59 5.4832e-13   6738.00 1 
  6719.58 5.5102e-13   6740.00 1 
  6721.57 5.5927e-13   6742.00 1 
  6723.57 5.6482e-13   6744.00 1 
  6725.56 5.6460e-13   6746.00 1 
  6727.55 5.6191e-13   6748.00 1 
  6729.55 5.6318e-13   6750.00 1 
  6731.54 5.6587e-13   6752.00 1 
  6733.54 5.6477e-13   6754.00 1 
  6735.53 5.5842e-13   6756.00 1 
  6737.52 5.5546e-13   6758.00 1 
  6739.52 5.5684e-13   6760.00 1 
  6741.51 5.5932e-13   6762.00 1 
  6743.51 5.5900e-13   6764.00 1 
  6745.50 5.5646e-13   6766.00 1 
  6747.49 5.5535e-13   6768.00 1 
  6749.49 5.5561e-13   6770.00 1 
  6751.48 5.5662e-13   6772.00 1 
  6753.48 5.5948e-13   6774.00 1 
  6755.47 5.6365e-13   6776.00 1 
  6757.46 5.6862e-13   6778.00 1 
  6759.46 5.6941e-13   6780.00 1 
  6761.45 5.6783e-13   6782.00 1 
  6763.45 5.6720e-13   6784.00 1 
  6765.44 5.6687e-13   6786.00 1 
  6767.43 5.6413e-13   6788.00 1 
  6769.43 5.5963e-13   6790.00 1 
  6771.42 5.5842e-13   6792.00 1 
  6773.42 5.6222e-13   6794.00 1 
  6775.41 5.6930e-13   6796.00 1 
  6777.40 5.7211e-13   6798.00 1 
  6779.40 5.6561e-13   6800.00 1 
  6781.39 5.5805e-13   6802.00 1 
  6783.39 5.5493e-13   6804.00 1 
  6785.38 5.5905e-13   6806.00 1 
  6787.37 5.6375e-13   6808.00 1 
  6789.37 5.6518e-13   6810.00 1 
  6791.36 5.6090e-13   6812.00 1 
  6793.35 5.5287e-13   6814.00 1 
  6795.35 5.5292e-13   6816.00 1 
  6797.34 5.5773e-13   6818.00 1 
  6799.34 5.6075e-13   6820.00 1 
  6801.33 5.5763e-13   6822.00 1 
  6803.32 5.5487e-13   6824.00 1 
  6805.32 5.5594e-13   6826.00 1 
  6807.31 5.5704e-13   6828.00 1 
  6809.31 5.5810e-13   6830.00 1 
  6818.40 5.5680e-13   6839.12 0 
  6834.11 5.5285e-13   6854.88 0 
  6849.87 5.3274e-13   6870.68 0 
  6865.66 5.2896e-13   6886.52 0 
  6881.49 5.4366e-13   6902.40 0 
  6897.35 5.4857e-13   6918.31 0 
  6913.25 5.5098e-13   6934.26 0 
  6929.19 5.4456e-13   6950.24 0 
  6945.16 5.6357e-13   6966.26 0 
  6961.17 5.5062e-13   6982.33 0 
  6977.22 5.6853e-13   6998.42 0 
  6993.30 5.7103e-13   7014.55 0 
  7009.42 5.5791e-13   7030.72 0 
  7025.58 5.6165e-13   7046.93 0 
  7041.78 5.7065e-13   7063.18 0 
  7058.01 5.8113e-13   7079.46 0 
  7074.28 5.1663e-13   7095.78 0 
  7090.59 5.2490e-13   7112.14 0 
  7106.93 5.3209e-13   7128.53 0 
  7123.32 5.2830e-13   7144.96 0 
  7139.74 5.0325e-13   7161.43 0 
  7156.19 4.9738e-13   7177.94 0 
  7172.69 4.9384e-13   7194.49 0 
  7189.23 4.9259e-13   7211.08 0 
  7205.80 5.0395e-13   7227.70 0 
  7222.41 5.2275e-13   7244.36 0 
  7239.06 5.3234e-13   7261.06 0 
  7255.75 5.4713e-13   7277.80 0 
  7272.47 5.4074e-13   7294.57 0 
  7289.24 5.2467e-13   7311.39 0 
  7306.04 5.4675e-13   7328.25 0 
  7322.88 5.4788e-13   7345.14 0 
  7339.77 5.5155e-13   7362.07 0 
  7356.69 5.6038e-13   7379.04 0 
  7373.64 5.6414e-13   7396.05 0 
  7390.64 5.6400e-13   7413.10 0 
  7407.68 5.6257e-13   7430.19 0 
  7424.76 5.5857e-13   7447.32 0 
  7441.87 5.8610e-13   7464.49 0 
  7459.03 5.8867e-13   7481.70 0 
  7476.22 5.8582e-13   7498.94 0 
  7493.45 5.8974e-13   7516.23 0 
  7510.73 5.8689e-13   7533.56 0 
  7528.05 5.9355e-13   7550.92 0 
  7545.40 5.9752e-13   7568.33 0 
  7562.79 5.8109e-13   7585.78 0 
  7580.23 5.6904e-13   7603.26 0 
  7597.70 5.6239e-13   7620.79 0 
  7615.21 5.5838e-13   7638.36 0 
  7632.77 5.5825e-13   7655.97 0 
  7650.37 5.4792e-13   7673.61 0 
  7668.00 5.3903e-13   7691.30 0 
  7685.68 5.4892e-13   7709.04 0 
  7703.40 5.4001e-13   7726.81 0 
  7721.15 5.2155e-13   7744.62 0 
  7738.95 5.2989e-13   7762.47 0 
  7756.79 4.9554e-13   7780.37 0 
  7774.67 5.3330e-13   7798.30 0 
  7792.59 5.2949e-13   7816.28 0 
  7810.56 5.3549e-13   7834.30 0 
  7828.56 5.4156e-13   7852.36 0 
  7846.61 5.3893e-13   7870.46 0 
  7864.70 5.4129e-13   7888.60 0 
  7882.83 5.3005e-13   7906.79 0 
  7901.00 5.2992e-13   7925.01 0 
  7919.22 5.1298e-13   7943.28 0 
  7937.47 5.1759e-13   7961.59 0 
  7955.77 5.0919e-13   7979.95 0 
  7974.11 5.2573e-13   7998.34 0 
  7992.49 5.3537e-13   8016.78 0 
  8010.92 5.2425e-13   8035.26 0 
  8029.38 5.4129e-13   8053.78 0 
  8047.89 5.5376e-13   8072.35 0 
  8066.45 5.5489e-13   8090.96 0 
  8085.04 5.3468e-13   8109.61 0 
  8103.68 5.1997e-13   8128.31 0 
  8122.36 5.3195e-13   8147.04 0 
  8141.08 5.2451e-13   8165.82 0 
  8159.85 5.2922e-13   8184.65 0 
  8178.66 5.2544e-13   8203.52 0 
  8197.51 5.2895e-13   8222.43 0 
  8216.41 5.3493e-13   8241.38 0 
  8235.35 4.9794e-13   8260.38 0 
  8254.34 5.5343e-13   8279.42 0 
  8273.36 5.5329e-13   8298.51 0 
  8292.44 5.2703e-13   8317.64 0 
  8311.55 5.1727e-13   8336.81 0 
  8330.71 5.1004e-13   8356.03 0 
  8349.92 5.2660e-13   8375.29 0 
  8369.17 5.2768e-13   8394.60 0 
  8388.46 5.2030e-13   8413.95 0 
  8407.80 5.2256e-13   8433.35 0 
  8427.18 5.2121e-13   8452.79 0 
  8446.60 4.8629e-13   8472.27 0 
  8466.07 4.9634e-13   8491.80 0 
  8485.59 5.0893e-13   8511.38 0 
  8505.15 4.0883e-13   8531.00 0 
  8524.76 4.6927e-13   8550.67 0 
  8544.41 4.7130e-13   8570.38 0 
  8564.11 4.8998e-13   8590.14 0 
  8583.85 4.9666e-13   8609.94 0 
  8603.64 4.9881e-13   8629.79 0 
  8623.47 4.9524e-13   8649.68 0 
  8643.35 5.0431e-13   8669.62 0 
  8663.27 4.8705e-13   8689.60 0 
  8683.25 4.6180e-13   8709.64 0 
  8703.26 4.9355e-13   8729.71 0 
  8723.33 5.0374e-13   8749.84 0 
  8743.44 4.9669e-13   8770.01 0 
  8763.59 5.0928e-13   8790.23 0 
  8783.79 4.9526e-13   8810.49 0 
  8804.05 5.0317e-13   8830.80 0 
  8824.34 5.1712e-13   8851.16 0 
  8844.68 5.0637e-13   8871.56 0 
  8865.07 5.1445e-13   8892.01 0 
  8885.51 4.6689e-13   8912.51 0 
  8905.99 4.7983e-13   8933.05 0 
  8926.52 4.8413e-13   8953.65 0 
  8947.10 4.9072e-13   8974.29 0 
  8967.72 4.8496e-13   8994.98 0 
  8988.39 4.6729e-13   9015.71 0 
  9009.12 4.4715e-13   9036.50 0 
  9029.88 4.6809e-13   9057.33 0 
  9050.70 5.0839e-13   9078.20 0 
  9071.57 4.7651e-13   9099.13 0 
  9092.48 4.8747e-13   9120.11 0 
  9113.44 4.8957e-13   9141.13 0 
  9134.44 5.0198e-13   9162.20 0 
  9155.50 4.7050e-13   9183.33 0 
  9176.61 4.6071e-13   9204.50 0 
  9197.76 4.8006e-13   9225.71 0 
  9218.97 4.5099e-13   9246.98 0 
  9240.22 4.4775e-13   9268.30 0 
  9261.52 4.7196e-13   9289.66 0 
  9282.87 4.8615e-13   9311.08 0 
  9304.27 4.4019e-13   9332.54 0 
  9325.71 4.9035e-13   9354.06 0 
  9347.21 4.8795e-13   9375.62 0 
  9368.76 4.7890e-13   9397.23 0 
  9390.36 4.8765e-13   9418.90 0 
  9412.00 4.7860e-13   9440.61 0 
  9433.70 4.9073e-13   9462.37 0 
  9455.45 4.8385e-13   9484.18 0 
  9477.24 4.9496e-13   9506.05 0 
  9499.10 4.9481e-13   9527.96 0 
  9520.99 4.8899e-13   9549.93 0 
  9542.94 4.8102e-13   9571.94 0 
  9564.94 4.8532e-13   9594.01 0 
  9586.99 4.9305e-13   9616.12 0 
  9609.09 4.8613e-13   9638.29 0 
  9631.24 4.8935e-13   9660.51 0 
  9653.44 4.8027e-13   9682.78 0 
  9675.70 4.8011e-13   9705.10 0 
  9698.00 4.8664e-13   9727.47 0 
  9720.36 4.7760e-13   9749.90 0 
  9742.76 4.7090e-13   9772.37 0 
  9765.22 4.7292e-13   9794.90 0 
  9787.74 4.6521e-13   9817.48 0 
  9810.30 4.7809e-13   9840.11 0 
  9832.91 4.7355e-13   9862.79 0 
  9855.58 4.7558e-13   9885.53 0 
  9878.30 4.7216e-13   9908.32 0 
  9901.07 4.7200e-13   9931.16 0 
  9923.89 4.6860e-13   9954.05 0 
  9946.77 4.7061e-13   9977.00 0 
  9969.70 4.7045e-13  10000.00 0 
  9992.68 4.6814e-13  10023.05 0 
 10015.72 4.7014e-13  10046.15 0 
 10085.15 4.6323e-13  10115.80 0 
 10131.70 4.6828e-13  10162.49 0 
 10178.46 4.6261e-13  10209.39 0 
 10225.45 4.6336e-13  10256.52 0 
 10272.64 4.6412e-13  10303.86 0 
 10296.32 4.6183e-13  10327.61 0 
 10511.92 4.4579e-13  10543.86 0 
 10707.36 4.2673e-13  10739.90 0 
 10906.42 4.1319e-13  10939.56 0 
 11109.18 3.9369e-13  11142.94 0 
 11289.69 3.8561e-13  11324.00 0 
 11499.58 3.8208e-13  11534.53 0 
 11713.38 3.7167e-13  11748.98 0 
 11903.71 3.5740e-13  11939.88 0 
 12097.13 3.5007e-13  12133.89 0 
 12293.69 3.4447e-13  12331.05 0 
 12493.45 3.3431e-13  12531.41 0 
 12696.45 3.2595e-13  12735.03 0 
 12902.75 3.1853e-13  12941.96 0 
 13112.40 3.1200e-13  13152.25 0 
 13294.81 3.0210e-13  13335.21 0 
 13510.83 2.9590e-13  13551.89 0 
 13698.79 2.9050e-13  13740.42 0 
 13889.36 2.7935e-13  13931.57 0 
 14115.04 2.6678e-13  14157.94 0 
 14311.40 2.6312e-13  14354.90 0 
 14510.50 2.6433e-13  14554.59 0 
 14712.36 2.5477e-13  14757.07 0 
 14917.03 2.5772e-13  14962.36 0 
 15089.75 2.5891e-13  15135.61 0 
 15299.67 2.6312e-13  15346.17 0 
 15512.51 2.6011e-13  15559.65 0 
 15692.14 2.5595e-13  15739.83 0 
 15910.44 2.4783e-13  15958.79 0 
 16094.68 2.4840e-13  16143.59 0 
 16318.58 2.4612e-13  16368.17 0 
 16507.53 2.4275e-13  16557.70 0 
 16698.68 2.3942e-13  16749.43 0 
 16892.05 2.3559e-13  16943.38 0 
 17087.65 2.2917e-13  17139.58 0 
 17285.50 2.2037e-13  17338.03 0 
 17485.66 2.1240e-13  17538.80 0 
 17688.14 2.0331e-13  17741.90 0 
 17892.97 1.9550e-13  17947.34 0 
 18100.14 1.8627e-13  18155.15 0 
 18309.74 1.8078e-13  18365.38 0 
 18479.16 1.7464e-13  18535.32 0 
 18693.13 1.6678e-13  18749.94 0 
 18909.59 1.6186e-13  18967.05 0 
 19084.56 1.5854e-13  19142.56 0 
 19305.56 1.5281e-13  19364.23 0 
 19484.18 1.4694e-13  19543.39 0 
 19709.80 1.4163e-13  19769.70 0 
 19892.18 1.3682e-13  19952.63 0 
 20122.50 1.3463e-13  20183.66 0 
 20308.70 1.2946e-13  20370.42 0 
 20496.63 1.2739e-13  20558.92 0 
 20686.27 1.2392e-13  20749.13 0 
 20877.68 1.2082e-13  20941.13 0 
 21119.44 1.1862e-13  21183.62 0 
 21314.84 1.1565e-13  21379.62 0 
 21512.07 1.1302e-13  21577.45 0 
 21711.11 1.0943e-13  21777.09 0 
 21912.01 1.0719e-13  21978.60 0 
 22114.77 1.0379e-13  22181.97 0 
 22319.38 1.0096e-13  22387.21 0 
 22525.91 9.8436e-14  22594.36 0 
 22682.04 9.5533e-14  22750.97 0 
 22891.92 8.5340e-14  22961.49 0 
 23103.72 8.4363e-14  23173.93 0 
 23317.51 7.3477e-14  23388.37 0 
 23479.15 6.9207e-14  23550.50 0 
 23696.39 7.0009e-14  23768.40 0 
 23915.66 6.4143e-14  23988.34 0 
 24081.42 6.1966e-14  24154.60 0 
 24304.25 6.1116e-14  24378.11 0 
 24472.71 5.6774e-14  24547.08 0 
 24699.16 5.5738e-14  24774.22 0 
 24927.68 4.6575e-14  25003.44 0 
 25100.49 4.5725e-14  25176.77 0 
 25274.47 4.6042e-14  25351.28 0 
 25508.34 4.5620e-14  25585.86 0 
 25685.14 4.6361e-14  25763.20 0 
 25922.81 4.5515e-14  26001.59 0 
 26102.52 4.5410e-14  26181.84 0 
 26283.44 4.4274e-14  26363.31 0 
 26526.65 4.3667e-14  26607.26 0 
 26710.51 4.2870e-14  26791.68 0 
 26895.67 4.2184e-14  26977.41 0 
 27082.09 4.1414e-14  27164.39 0 
 27269.80 4.0472e-14  27352.67 0 
 27522.14 3.9825e-14  27605.78 0 
 27712.90 3.8918e-14  27797.12 0 
 27905.01 3.8296e-14  27989.81 0 
 28098.43 3.7510e-14  28183.82 0 
 28293.21 3.6911e-14  28379.20 0 
 28489.32 3.6070e-14  28575.90 0 
 28686.81 3.5331e-14  28773.99 0 
 28885.65 3.4686e-14  28973.43 0 
 29085.89 3.3974e-14  29174.28 0 
 29287.49 3.3278e-14  29376.49 0 
 29490.52 3.2595e-14  29580.14 0 
 29694.92 3.2074e-14  29785.16 0 
 29900.77 3.1344e-14  29991.64 0 
 30108.02 3.0843e-14  30199.52 0 
 30316.70 3.0280e-14  30408.84 0 
 30526.87 2.9864e-14  30619.64 0 
 30667.76 2.9387e-14  30760.96 0 
 30880.36 2.8917e-14  30974.21 0 
 31094.40 2.8520e-14  31188.89 0 
 31309.95 2.8129e-14  31405.10 0 
 31526.97 2.7615e-14  31622.78 0 
 31672.48 2.7174e-14  31768.73 0 
 31892.04 2.6801e-14  31988.96 0 
 32113.09 2.5441e-14  32210.68 0 
 32335.70 2.4768e-14  32433.97 0 
 32484.95 2.4316e-14  32583.67 0 
 32710.11 2.3684e-14  32809.52 0 
 32936.86 2.3063e-14  33036.96 0 
 33088.88 2.2646e-14  33189.44 0 
 33318.26 2.2051e-14  33419.52 0 
 33472.04 2.1670e-14  33573.76 0 
 33704.04 2.1095e-14  33806.47 0 
 33937.69 2.0535e-14  34040.82 0 
 34094.32 2.0183e-14  34197.94 0 
 34330.68 1.9653e-14  34435.01 0 
 34489.13 1.9297e-14  34593.94 0 
 34728.18 1.8802e-14  34833.72 0 
 34888.50 1.8476e-14  34994.53 0 
 35130.32 1.7984e-14  35237.08 0 
 35292.46 1.7668e-14  35399.71 0 
 35537.12 1.7218e-14  35645.12 0 
 35701.14 1.6916e-14  35809.64 0 
 35865.96 1.6612e-14  35974.95 0 
 36114.55 1.6187e-14  36224.30 0 
 36281.23 1.5908e-14  36391.49 0 
 36532.75 1.5489e-14  36643.77 0 
 36701.36 1.5216e-14  36812.89 0 
 36870.75 1.4960e-14  36982.80 0 
 37126.35 1.4573e-14  37239.18 0 
 37297.71 1.4314e-14  37411.05 0 
 37469.85 1.4067e-14  37583.72 0 
 37729.61 1.3711e-14  37844.27 0 
 37903.74 1.3472e-14  38018.93 0 
 38078.69 1.3232e-14  38194.41 0 
 38342.66 1.2898e-14  38459.18 0 
 38519.63 1.2678e-14  38636.69 0 
 38697.46 1.2457e-14  38815.06 0 
 38876.06 1.2235e-14  38994.21 0 
 39055.49 1.2031e-14  39174.18 0 
 39326.23 1.1726e-14  39445.75 0 
 39507.74 1.1521e-14  39627.81 0 
 39690.09 1.1318e-14  39810.71 0 
 39873.32 1.1131e-14  39994.50 0 
 40057.36 1.0943e-14  40179.09 0 
 40335.00 1.0659e-14  40457.58 0 
 40521.21 1.0474e-14  40644.35 0 
 40708.23 1.0300e-14  40831.95 0 
 40896.12 1.0126e-14  41020.40 0 
 41084.87 9.9510e-15  41209.73 0 
 41274.54 9.7754e-15  41399.98 0 
 41465.05 9.6150e-15  41591.06 0 
 41656.43 9.4538e-15  41783.02 0 
 41945.20 9.2106e-15  42072.67 0 
 42138.80 9.0510e-15  42266.86 0 
 42333.28 8.9023e-15  42461.93 0 
 42528.72 8.7529e-15  42657.96 0 
 42725.01 8.6029e-15  42854.85 0 
 42922.20 8.4521e-15  43052.64 0 
 43120.36 8.3135e-15  43251.40 0 
 43319.38 8.1754e-15  43451.02 0 
 43519.32 8.0366e-15  43651.57 0 
 43720.22 7.8971e-15  43853.09 0 
 43922.01 7.7651e-15  44055.49 0 
 44124.73 7.6373e-15  44258.83 0 
 44328.39 7.5089e-15  44463.10 0 
 44533.03 7.3799e-15  44668.37 0 
 44738.57 7.2542e-15  44874.54 0 
 44945.06 7.1359e-15  45081.65 0 
 45048.71 7.0766e-15  45185.62 0 
 45256.63 6.9575e-15  45394.17 0 
 45465.51 6.8379e-15  45603.68 0 
 45675.36 6.7235e-15  45814.16 0 
 45886.22 6.6138e-15  46025.67 0 
 46098.01 6.5036e-15  46238.10 0 
 46310.77 6.3928e-15  46451.51 0 
 46524.56 6.2839e-15  46665.95 0 
 46739.30 6.1823e-15  46881.34 0 
 46847.03 6.1314e-15  46989.40 0 
 47063.26 6.0291e-15  47206.28 0 
 47280.53 5.9264e-15  47424.21 0 
 47498.75 5.8271e-15  47643.10 0 
 47717.98 5.7329e-15  47862.99 0 
 47938.27 5.6382e-15  48083.95 0 
 48048.77 5.5907e-15  48194.79 0 
 48270.54 5.4953e-15  48417.23 0 
 48493.33 5.4050e-15  48640.70 0 
 48717.20 5.3174e-15  48865.25 0 
 48942.05 5.2296e-15  49090.79 0 
 49054.87 5.1855e-15  49203.95 0 
 49281.28 5.0969e-15  49431.04 0 
 49508.78 5.0146e-15  49659.24 0 
 49737.29 4.9334e-15  49888.45 0 
 49851.94 4.8926e-15  50003.44 0 
 50082.09 4.8108e-15  50234.29 0 
 50313.23 4.7288e-15  50466.14 0 
 50545.45 4.6537e-15  50699.06 0 
 50661.96 4.6160e-15  50815.93 0 
 50778.75 4.5782e-15  50933.06 0 
 50895.85 4.5404e-15  51050.52 0 
 51013.17 4.5024e-15  51168.20 0 
 51130.76 4.4644e-15  51286.14 0 
 51248.61 4.4263e-15  51404.36 0 
 51366.75 4.3896e-15  51522.85 0 
 51485.15 4.3548e-15  51641.62 0 
 51603.89 4.3198e-15  51760.71 0 
 51722.84 4.2848e-15  51880.02 0 
 51842.06 4.2497e-15  51999.61 0 
 51961.56 4.2145e-15  52119.47 0 
 52081.33 4.1793e-15  52239.61 0 
 52201.39 4.1440e-15  52360.03 0 
 52321.71 4.1086e-15  52480.72 0 
 52442.38 4.0757e-15  52601.75 0 
 52563.26 4.0434e-15  52723.00 0 
 52684.42 4.0109e-15  52844.53 0 
 52805.86 3.9784e-15  52966.34 0 
 52927.59 3.9458e-15  53088.43 0 
 53049.59 3.9131e-15  53210.80 0 
 53171.93 3.8803e-15  53333.52 0 
 53294.50 3.8475e-15  53456.46 0 
 53417.34 3.8153e-15  53579.68 0 
 53540.47 3.7853e-15  53703.18 0 
 53663.89 3.7552e-15  53826.97 0 
 53787.59 3.7251e-15  53951.05 0 
 53911.57 3.6948e-15  54075.41 0 
 54035.90 3.6645e-15  54200.11 0 
 54160.46 3.6341e-15  54325.05 0 
 54285.30 3.6037e-15  54450.27 0 
 54410.43 3.5732e-15  54575.79 0 
 54535.85 3.5444e-15  54701.59 0 
 54661.56 3.5165e-15  54827.68 0 
 54787.56 3.4885e-15  54954.06 0 
 54913.91 3.4604e-15  55080.79 0 
 55040.49 3.4323e-15  55207.76 0 
 55167.36 3.4042e-15  55335.02 0 
 55294.53 3.3759e-15  55462.57 0 
 55421.98 3.3476e-15  55590.41 0 
 55549.74 3.3194e-15  55718.55 0 
 55677.84 3.2935e-15  55847.05 0 
 55806.18 3.2675e-15  55975.78 0 
 55934.82 3.2415e-15  56104.81 0 
 56063.76 3.2155e-15  56234.13 0 
 56192.99 3.1893e-15  56363.76 0 
 56322.52 3.1631e-15  56493.68 0 
 56452.34 3.1369e-15  56623.90 0 
 56582.53 3.1106e-15  56754.48 0 
 56712.96 3.0852e-15  56885.31 0 
 56843.69 3.0611e-15  57016.43 0 
 56974.71 3.0370e-15  57147.86 0 
 57106.04 3.0128e-15  57279.59 0 
 57237.68 2.9886e-15  57411.62 0 
 57369.68 2.9643e-15  57544.02 0 
 57501.92 2.9399e-15  57676.67 0 
 57634.47 2.9155e-15  57809.62 0 
 57767.32 2.8910e-15  57942.87 0 
 57900.47 2.8683e-15  58076.43 0 
 58033.94 2.8459e-15  58210.30 0 
 58167.71 2.8235e-15  58344.48 0 
 58301.86 2.8009e-15  58479.04 0 
 58436.24 2.7784e-15  58613.83 0 
 58570.94 2.7558e-15  58748.94 0 
 58705.96 2.7331e-15  58884.36 0 
 58841.28 2.7104e-15  59020.09 0 
 58976.91 2.6881e-15  59156.14 0 
 59112.86 2.6673e-15  59292.50 0 
 59249.18 2.6465e-15  59429.24 0 
 59385.75 2.6256e-15  59566.23 0 
 59522.64 2.6046e-15  59703.53 0 
 59659.85 2.5837e-15  59841.15 0 
 59797.37 2.5626e-15  59979.09 0 
 59935.20 2.5415e-15  60117.35 0 
 60073.43 2.5204e-15  60255.99 0 
 60211.90 2.5004e-15  60394.88 0 
 60350.69 2.4811e-15  60534.10 0 
 60489.80 2.4617e-15  60673.63 0 
 60629.24 2.4422e-15  60813.49 0 
 60768.99 2.4227e-15  60953.67 0 
 60909.07 2.4032e-15  61094.17 0 
 61049.53 2.3836e-15  61235.06 0 
 61190.26 2.3640e-15  61376.21 0 
 61331.31 2.3444e-15  61517.69 0 
 61472.68 2.3264e-15  61659.50 0 
 61614.38 2.3084e-15  61801.62 0 
 61756.40 2.2903e-15  61944.08 0 
 61898.82 2.2722e-15  62086.93 0 
 62041.51 2.2541e-15  62230.05 0 
 62184.52 2.2359e-15  62373.50 0 
 62327.86 2.2177e-15  62517.27 0 
 62471.52 2.1994e-15  62661.38 0 
 62615.53 2.1818e-15  62805.82 0 
 62759.86 2.1651e-15  62950.59 0 
 62904.59 2.1483e-15  63095.76 0 
 63049.60 2.1315e-15  63241.20 0 
 63194.93 2.1146e-15  63386.98 0 
 63340.60 2.0977e-15  63533.09 0 
 63486.60 2.0808e-15  63679.54 0 
 63632.94 2.0638e-15  63826.32 0 
 63779.69 2.0468e-15  63973.52 0 
 63926.71 2.0310e-15  64120.98 0 
 64074.06 2.0154e-15  64268.79 0 
 64221.76 1.9998e-15  64416.93 0 
 64369.79 1.9841e-15  64565.41 0 
 64518.17 1.9684e-15  64714.24 0 
 64666.89 1.9527e-15  64863.41 0 
 64816.02 1.9369e-15  65013.00 0 
 64965.43 1.9211e-15  65162.86 0 
 65115.18 1.9056e-15  65313.06 0 
 65265.27 1.8911e-15  65463.61 0 
 65415.72 1.8766e-15  65614.52 0 
 65566.50 1.8620e-15  65765.76 0 
 65717.64 1.8474e-15  65917.35 0 
 65869.19 1.8328e-15  66069.37 0 
 66021.03 1.8182e-15  66221.66 0 
 66173.21 1.8035e-15  66374.31 0 
 66325.75 1.7887e-15  66527.31 0 
 66478.63 1.7748e-15  66680.66 0 
 66631.87 1.7613e-15  66834.36 0 
 66785.53 1.7478e-15  66988.49 0 
 66939.48 1.7342e-15  67142.91 0 
 67093.78 1.7206e-15  67297.68 0 
 67248.44 1.7070e-15  67452.80 0 
 67403.45 1.6933e-15  67608.29 0 
 67558.81 1.6796e-15  67764.12 0 
 67714.54 1.6660e-15  67920.33 0 
 67870.70 1.6534e-15  68076.96 0 
 68027.16 1.6408e-15  68233.89 0 
 68183.96 1.6282e-15  68391.17 0 
 68341.13 1.6156e-15  68548.82 0 
 68498.66 1.6029e-15  68706.83 0 
 68656.56 1.5902e-15  68865.20 0 
 68814.89 1.5775e-15  69024.02 0 
 68973.51 1.5647e-15  69183.12 0 
 69132.50 1.5524e-15  69342.59 0 
 69291.85 1.5407e-15  69502.43 0 
 69451.58 1.5290e-15  69662.64 0 
 69611.67 1.5172e-15  69823.22 0 
 69772.13 1.5054e-15  69984.16 0 
 69933.04 1.4936e-15  70145.56 0 
 70094.23 1.4818e-15  70307.25 0 
 70255.81 1.4699e-15  70469.31 0 
 70417.75 1.4580e-15  70631.75 0 
 70580.07 1.4470e-15  70794.56 0 
 70742.76 1.4361e-15  70957.75 0 
 70905.91 1.4251e-15  71121.39 0 
 71069.35 1.4142e-15  71285.33 0 
 71233.17 1.4032e-15  71449.65 0 
 71397.37 1.3922e-15  71614.34 0 
 71561.95 1.3811e-15  71779.42 0 
 71726.90 1.3701e-15  71944.88 0 
 71892.24 1.3592e-15  72110.72 0 
 72058.03 1.3490e-15  72277.02 0 
 72224.13 1.3389e-15  72443.62 0 
 72390.61 1.3287e-15  72610.61 0 
 72557.47 1.3184e-15  72777.98 0 
 72724.72 1.3082e-15  72945.73 0 
 72892.36 1.2979e-15  73113.88 0 
 73060.38 1.2876e-15  73282.41 0 
 73228.87 1.2773e-15  73451.41 0 
 73397.67 1.2675e-15  73620.73 0 
 73566.86 1.2580e-15  73790.43 0 
 73736.44 1.2486e-15  73960.52 0 
 73906.41 1.2390e-15  74131.01 0 
 74076.76 1.2295e-15  74301.88 0 
 74247.60 1.2199e-15  74473.23 0 
 74418.74 1.2104e-15  74644.90 0 
 74590.28 1.2007e-15  74816.96 0 
 74762.22 1.1912e-15  74989.42 0 
 74934.55 1.1823e-15  75162.27 0 
 75107.28 1.1735e-15  75335.53 0 
 75280.41 1.1646e-15  75509.19 0 
 75454.02 1.1558e-15  75683.32 0 
 75627.95 1.1469e-15  75857.78 0 
 75802.27 1.1379e-15  76032.63 0 
 75977.00 1.1290e-15  76207.90 0 
 76152.14 1.1200e-15  76383.56 0 
 76327.67 1.1114e-15  76559.63 0 
 76503.69 1.1032e-15  76736.19 0 
 76680.04 1.0949e-15  76913.07 0 
 76856.79 1.0866e-15  77090.36 0 
 77033.96 1.0784e-15  77268.06 0 
 77211.53 1.0700e-15  77446.17 0 
 77389.50 1.0617e-15  77624.69 0 
 77567.89 1.0534e-15  77803.62 0 
 77746.77 1.0450e-15  77983.05 0 
 77925.99 1.0372e-15  78162.80 0 
 78105.61 1.0295e-15  78342.98 0 
 78285.65 1.0218e-15  78523.56 0 
 78466.10 1.0141e-15  78704.56 0 
 78646.98 1.0064e-15  78885.98 0 
 78828.26 9.9864e-16  79067.82 0 
 79010.05 9.9086e-16  79250.16 0 
 79192.18 9.8307e-16  79432.84 0 
 79374.72 9.7543e-16  79615.94 0 
 79557.69 9.6827e-16  79799.46 0 
 79741.07 9.6109e-16  79983.41 0 
 79924.88 9.5390e-16  80167.77 0 
 80109.20 9.4669e-16  80352.65 0 
 80293.85 9.3947e-16  80537.87 0 
 80478.94 9.3223e-16  80723.52 0 
 80664.45 9.2497e-16  80909.59 0 
 80850.39 9.1770e-16  81096.09 0 
 81036.75 9.1081e-16  81283.02 0 
 81223.54 9.0412e-16  81470.38 0 
 81410.87 8.9742e-16  81658.27 0 
 81598.52 8.9070e-16  81846.50 0 
 81786.61 8.8397e-16  82035.16 0 
 81975.14 8.7723e-16  82224.26 0 
 82164.09 8.7046e-16  82413.79 0 
 82353.49 8.6369e-16  82603.76 0 
 82543.41 8.5691e-16  82794.26 0 
 82733.67 8.5068e-16  82985.10 0 
 82924.38 8.4444e-16  83176.39 0 
 83115.53 8.3818e-16  83368.12 0 
 83307.12 8.3191e-16  83560.29 0 
 83499.14 8.2562e-16  83752.90 0 
 83691.62 8.1931e-16  83945.96 0 
 83884.63 8.1299e-16  84139.55 0 
 84077.99 8.0666e-16  84333.50 0 
 84271.79 8.0056e-16  84527.89 0 
 84466.04 7.9473e-16  84722.73 0 
 84660.75 7.8890e-16  84918.03 0 
 84855.90 7.8305e-16  85113.77 0 
 85051.58 7.7719e-16  85310.05 0 
 85247.64 7.7131e-16  85506.70 0 
 85444.14 7.6542e-16  85703.80 0 
 85641.09 7.5952e-16  85901.35 0 
 85838.50 7.5360e-16  86099.37 0 
 86036.36 7.4810e-16  86297.83 0 
 86234.68 7.4265e-16  86496.75 0 
 86433.55 7.3720e-16  86696.23 0 
 86632.79 7.3173e-16  86896.07 0 
 86832.48 7.2625e-16  87096.37 0 
 87032.64 7.2076e-16  87297.13 0 
 87233.26 7.1526e-16  87498.36 0 
 87434.33 7.0974e-16  87700.05 0 
 87635.88 7.0433e-16  87902.20 0 
 87837.98 6.9925e-16  88104.92 0 
 88040.45 6.9416e-16  88308.01 0 
 88243.40 6.8907e-16  88511.57 0 
 88446.80 6.8396e-16  88715.59 0 
 88650.68 6.7883e-16  88920.09 0 
 88855.02 6.7370e-16  89125.05 0 
 89059.94 6.6855e-16  89330.59 0 
 89265.23 6.6340e-16  89536.51 0 
 89470.99 6.5851e-16  89742.89 0 
 89677.23 6.5376e-16  89949.76 0 
 89883.94 6.4901e-16  90157.10 0 
 90091.13 6.4424e-16  90364.91 0 
 90298.79 6.3946e-16  90573.21 0 
 90507.04 6.3467e-16  90782.09 0 
 90715.67 6.2987e-16  90991.35 0 
 90924.77 6.2506e-16  91201.09 0 
 91134.36 6.2026e-16  91411.32 0 
 91344.43 6.1583e-16  91622.02 0 
 91554.98 6.1139e-16  91833.22 0 
 91766.13 6.0694e-16  92045.01 0 
 91977.65 6.0248e-16  92257.17 0 
 92189.67 5.9802e-16  92469.84 0 
 92402.17 5.9354e-16  92682.98 0 
 92615.17 5.8905e-16  92896.62 0 
 92828.65 5.8455e-16  93110.76 0 
 93042.63 5.8021e-16  93325.38 0 
 93257.20 5.7606e-16  93540.61 0 
 93472.16 5.7191e-16  93756.23 0 
 93687.63 5.6775e-16  93972.34 0 
 93903.58 5.6358e-16  94188.95 0 
 94120.04 5.5940e-16  94406.07 0 
 94336.99 5.5521e-16  94623.68 0 
 94554.55 5.5101e-16  94841.90 0 
 94772.50 5.4680e-16  95060.52 0 
 94990.96 5.4288e-16  95279.63 0 
 95209.92 5.3900e-16  95499.27 0 
 95429.39 5.3512e-16  95719.40 0 
 95649.36 5.3123e-16  95940.04 0 
 95869.84 5.2732e-16  96161.19 0 
 96090.92 5.2341e-16  96382.95 0 
 96312.42 5.1949e-16  96605.12 0 
 96534.43 5.1556e-16  96827.80 0 
 96756.95 5.1170e-16  97050.99 0 
 96979.98 5.0808e-16  97274.70 0 
 97203.53 5.0446e-16  97498.93 0 
 97427.59 5.0082e-16  97723.67 0 
 97652.27 4.9718e-16  97949.04 0 
 97877.37 4.9353e-16  98174.82 0 
 98102.98 4.8986e-16  98401.12 0 
 98329.12 4.8620e-16  98627.94 0 
 98555.77 4.8252e-16  98855.28 0 
 98782.95 4.7903e-16  99083.15 0 
 99010.76 4.7564e-16  99311.66 0 
 99238.99 4.7225e-16  99540.58 0 
 99467.74 4.6884e-16  99770.02 0 
 99697.02 4.6543e-16 100000.00 0 
 99926.83 4.6201e-16 100230.51 0 
100157.17 4.5859e-16 100461.55 0 
100388.04 4.5515e-16 100693.12 0 
100619.55 4.5172e-16 100925.34 0 
100851.48 4.4856e-16 101157.97 0 
101083.95 4.4538e-16 101391.15 0 
101316.96 4.4221e-16 101624.86 0 
101550.51 4.3902e-16 101859.12 0 
101784.58 4.3583e-16 102093.91 0 
102019.31 4.3262e-16 102329.35 0 
102254.48 4.2941e-16 102565.23 0 
102490.18 4.2620e-16 102801.65 0 
102726.43 4.2309e-16 103038.62 0 
102963.22 4.2013e-16 103276.12 0 
103200.56 4.1716e-16 103514.19 0 
103438.44 4.1418e-16 103752.79 0 
103676.99 4.1120e-16 103992.06 0 
103915.97 4.0821e-16 104231.77 0 
104155.50 4.0521e-16 104472.03 0 
104395.59 4.0220e-16 104712.85 0 
104636.23 3.9919e-16 104954.22 0 
104877.43 3.9638e-16 105196.15 0 
105119.18 3.9361e-16 105438.63 0 
105361.60 3.9082e-16 105681.79 0 
105604.47 3.8803e-16 105925.40 0 
105847.89 3.8524e-16 106169.56 0 
106091.88 3.8244e-16 106414.29 0 
106336.43 3.7963e-16 106659.59 0 
106581.54 3.7681e-16 106905.44 0 
106827.34 3.7405e-16 107151.98 0 
107073.58 3.7145e-16 107398.98 0 
107320.39 3.6885e-16 107646.54 0 
107567.77 3.6624e-16 107894.67 0 
107815.72 3.6363e-16 108143.38 0 
108064.25 3.6101e-16 108392.66 0 
108313.34 3.5839e-16 108642.51 0 
108563.13 3.5575e-16 108893.05 0 
108813.38 3.5312e-16 109144.06 0 
109064.20 3.5061e-16 109395.65 0 
109315.60 3.4818e-16 109647.81 0 
109567.58 3.4574e-16 109900.55 0 
109820.14 3.4330e-16 110153.88 0 
110073.41 3.4085e-16 110407.92 0 
110327.13 3.3839e-16 110662.41 0 
110581.44 3.3593e-16 110917.50 0 
110836.34 3.3347e-16 111173.17 0 
111091.83 3.3100e-16 111429.44 0 
111347.90 3.2873e-16 111686.29 0 
111604.57 3.2645e-16 111943.73 0 
111861.95 3.2416e-16 112201.90 0 
112119.80 3.2187e-16 112460.53 0 
112378.24 3.1958e-16 112719.76 0 
112637.28 3.1728e-16 112979.59 0 
112896.91 3.1497e-16 113240.01 0 
113157.15 3.1266e-16 113501.04 0 
113418.11 3.1042e-16 113762.79 0 
113679.55 3.0829e-16 114025.02 0 
113941.59 3.0615e-16 114287.86 0 
114204.23 3.0401e-16 114551.30 0 
114467.48 3.0186e-16 114815.34 0 
114731.34 2.9971e-16 115080.01 0 
114995.80 2.9755e-16 115345.27 0 
115261.00 2.9539e-16 115611.28 0 
115526.69 2.9322e-16 115877.77 0 
115792.98 2.9120e-16 116144.88 0 
116059.90 2.8920e-16 116412.60 0 
116327.42 2.8719e-16 116680.94 0 
116595.56 2.8519e-16 116949.90 0 
116864.33 2.8317e-16 117219.48 0 
117133.83 2.8115e-16 117489.80 0 
117403.83 2.7913e-16 117760.62 0 
117674.46 2.7710e-16 118032.07 0 
117945.70 2.7511e-16 118304.14 0 
118217.58 2.7324e-16 118576.84 0 
118490.08 2.7136e-16 118850.17 0 
118763.34 2.6948e-16 119124.26 0 
119037.10 2.6759e-16 119398.85 0 
119311.48 2.6570e-16 119674.07 0 
119586.51 2.6381e-16 119949.93 0 
119862.16 2.6191e-16 120226.42 0 
120138.45 2.6001e-16 120503.55 0 
120415.38 2.5820e-16 120781.32 0 
120693.08 2.5644e-16 121059.87 0 
120971.28 2.5468e-16 121338.91 0 
121250.13 2.5292e-16 121618.61 0 
121529.62 2.5115e-16 121898.95 0 
121809.76 2.4938e-16 122179.94 0 
122090.54 2.4760e-16 122461.57 0 
122372.10 2.4582e-16 122743.98 0 
122654.18 2.4404e-16 123026.92 0 
122936.90 2.4240e-16 123310.51 0 
123220.28 2.4075e-16 123594.74 0 
123504.31 2.3910e-16 123879.64 0 
123789.00 2.3744e-16 124165.20 0 
124074.34 2.3578e-16 124451.40 0 
124360.47 2.3412e-16 124738.41 0 
124647.13 2.3245e-16 125025.94 0 
124934.46 2.3078e-16 125314.13 0 
125222.44 2.2916e-16 125602.99 0 
125511.09 2.2762e-16 125892.52 0 
125800.40 2.2607e-16 126182.70 0 
126090.51 2.2452e-16 126473.70 0 
126381.16 2.2297e-16 126765.23 0 
126672.48 2.2141e-16 127057.44 0 
126964.47 2.1985e-16 127350.31 0 
127257.13 2.1828e-16 127643.87 0 
127550.47 2.1671e-16 127938.09 0 
127844.48 2.1525e-16 128233.00 0 
128139.31 2.1380e-16 128528.73 0 
128434.68 2.1234e-16 128824.99 0 
128730.73 2.1089e-16 129121.95 0 
129027.46 2.0943e-16 129419.58 0 
129324.88 2.0796e-16 129717.90 0 
129622.99 2.0650e-16 130016.91 0 
129921.78 2.0503e-16 130316.61 0 
130221.40 2.0358e-16 130617.14 0 
130521.57 2.0223e-16 130918.23 0 
130822.43 2.0086e-16 131220.00 0 
131123.98 1.9950e-16 131522.47 0 
131426.24 1.9813e-16 131825.64 0 
131729.18 1.9676e-16 132129.50 0 
132032.97 1.9539e-16 132434.22 0 
132337.31 1.9401e-16 132739.48 0 
132642.37 1.9263e-16 133045.47 0 
132948.11 1.9132e-16 133352.14 0 
133254.57 1.9004e-16 133659.53 0 
133561.73 1.8876e-16 133967.62 0 
133869.59 1.8748e-16 134276.42 0 
134178.33 1.8620e-16 134586.09 0 
134487.62 1.8491e-16 134896.33 0 
134797.62 1.8362e-16 135207.27 0 
135108.34 1.8233e-16 135518.94 0 
135419.77 1.8103e-16 135831.31 0 
135731.92 1.7984e-16 136144.41 0 
136044.95 1.7864e-16 136458.39 0 
136358.54 1.7744e-16 136772.94 0 
136672.85 1.7623e-16 137088.20 0 
136987.90 1.7503e-16 137404.20 0 
137303.66 1.7382e-16 137720.92 0 
137620.16 1.7260e-16 138038.39 0 
137937.39 1.7139e-16 138356.58 0 
138255.48 1.7021e-16 138675.64 0 
138574.17 1.6909e-16 138995.30 0 
138893.61 1.6796e-16 139315.70 0 
139213.76 1.6683e-16 139636.83 0 
139534.66 1.6570e-16 139958.70 0 
139856.29 1.6457e-16 140281.31 0 
140178.67 1.6343e-16 140604.67 0 
140501.95 1.6229e-16 140928.94 0 
140825.81 1.6115e-16 141253.78 0 
141150.43 1.6008e-16 141579.39 0 
141475.79 1.5903e-16 141905.73 0 
141801.91 1.5797e-16 142232.84 0 
142128.77 1.5691e-16 142560.70 0 
142456.54 1.5584e-16 142889.47 0 
142784.90 1.5478e-16 143218.83 0 
143114.05 1.5371e-16 143548.97 0 
143443.93 1.5264e-16 143879.86 0 
143774.58 1.5158e-16 144211.52 0 
144105.98 1.5059e-16 144543.92 0 
144438.16 1.4960e-16 144877.11 0 
144771.26 1.4860e-16 145211.22 0 
145104.96 1.4761e-16 145545.94 0 
145439.45 1.4661e-16 145881.44 0 
145774.69 1.4560e-16 146217.70 0 
146110.72 1.4460e-16 146554.75 0 
146447.51 1.4359e-16 146892.56 0 
146785.25 1.4263e-16 147231.33 0 
147123.59 1.4170e-16 147570.70 0 
147462.72 1.4077e-16 147910.86 0 
147802.64 1.3983e-16 148251.81 0 
148143.34 1.3889e-16 148593.55 0 
148484.82 1.3795e-16 148936.06 0 
148827.09 1.3701e-16 149279.38 0 
149170.30 1.3606e-16 149623.62 0 
149514.16 1.3512e-16 149968.53 0 
149858.80 1.3425e-16 150314.22 0 
150204.23 1.3337e-16 150660.70 0 
150550.46 1.3249e-16 151007.98 0 
150897.49 1.3161e-16 151356.06 0 
151245.49 1.3073e-16 151705.12 0 
151594.12 1.2984e-16 152054.81 0 
151943.56 1.2896e-16 152405.31 0 
152293.79 1.2807e-16 152756.61 0 
152644.83 1.2721e-16 153108.72 0 
152996.70 1.2638e-16 153461.66 0 
153349.36 1.2556e-16 153815.39 0 
153703.01 1.2473e-16 154170.11 0 
154057.30 1.2390e-16 154525.48 0 
154412.43 1.2307e-16 154881.69 0 
154768.36 1.2224e-16 155238.70 0 
155125.11 1.2141e-16 155596.53 0 
155482.68 1.2057e-16 155955.19 0 
155841.09 1.1979e-16 156314.69 0 
156200.48 1.1901e-16 156675.17 0 
156560.53 1.1824e-16 157036.31 0 
156921.41 1.1746e-16 157398.30 0 
157283.13 1.1668e-16 157761.11 0 
157645.68 1.1590e-16 158124.77 0 
158009.06 1.1512e-16 158489.25 0 
158373.45 1.1433e-16 158854.75 0 
158738.52 1.1356e-16 159220.92 0 
159104.42 1.1283e-16 159587.94 0 
159471.16 1.1210e-16 159955.80 0 
159838.77 1.1137e-16 160324.52 0 
160207.19 1.1064e-16 160694.06 0 
160576.49 1.0991e-16 161064.48 0 
160946.80 1.0917e-16 161435.92 0 
161317.80 1.0843e-16 161808.05 0 
161689.66 1.0769e-16 162181.03 0 
162062.35 1.0699e-16 162554.86 0 
162435.92 1.0631e-16 162929.56 0 
162810.34 1.0562e-16 163305.12 0 
163185.81 1.0493e-16 163681.73 0 
163561.97 1.0424e-16 164059.03 0 
163938.99 1.0355e-16 164437.20 0 
164316.88 1.0286e-16 164816.23 0 
164695.65 1.0217e-16 165196.16 0 
165075.27 1.0147e-16 165576.94 0 
165455.79 1.0083e-16 165958.61 0 
165837.36 1.0018e-16 166341.34 0 
166219.62 9.9538e-17 166724.77 0 
166602.77 9.8890e-17 167109.08 0 
166986.81 9.8241e-17 167494.28 0 
167371.72 9.7591e-17 167880.36 0 
167757.53 9.6939e-17 168267.34 0 
168144.40 9.6285e-17 168655.39 0 
168531.99 9.5652e-17 169044.16 0 
168920.46 9.5046e-17 169433.81 0 
169309.84 9.4439e-17 169824.38 0 
169700.11 9.3830e-17 170215.83 0 
170091.28 9.3221e-17 170608.19 0 
170483.35 9.2609e-17 171001.45 0 
170876.52 9.1996e-17 171395.81 0 
171270.40 9.1382e-17 171790.89 0 
171665.18 9.0766e-17 172186.88 0 
172060.89 9.0189e-17 172583.78 0 
172457.51 8.9618e-17 172981.61 0 
172855.04 8.9046e-17 173380.34 0 
173253.47 8.8473e-17 173779.98 0 
173653.02 8.7898e-17 174180.75 0 
174053.30 8.7322e-17 174582.25 0 
174454.52 8.6745e-17 174984.69 0 
174856.64 8.6166e-17 175388.03 0 
175259.70 8.5597e-17 175792.31 0 
175663.69 8.5060e-17 176197.53 0 
176068.80 8.4522e-17 176603.88 0 
176474.65 8.3983e-17 177010.95 0 
176881.44 8.3443e-17 177418.98 0 
177289.16 8.2902e-17 177827.94 0 
177697.82 8.2359e-17 178237.84 0 
178107.43 8.1815e-17 178648.70 0 
178517.98 8.1270e-17 179060.50 0 
178929.67 8.0749e-17 179473.44 0 
179342.12 8.0244e-17 179887.14 0 
179755.52 7.9737e-17 180301.80 0 
180169.87 7.9229e-17 180717.41 0 
180585.17 7.8720e-17 181133.97 0 
181001.44 7.8209e-17 181551.50 0 
181418.86 7.7697e-17 181970.19 0 
181837.04 7.7185e-17 182389.64 0 
182256.19 7.6672e-17 182810.06 0 
182676.30 7.6196e-17 183231.45 0 
183097.38 7.5720e-17 183653.81 0 
183519.43 7.5242e-17 184077.14 0 
183942.45 7.4763e-17 184501.45 0 
184366.66 7.4283e-17 184926.95 0 
184791.64 7.3801e-17 185353.22 0 
185217.59 7.3319e-17 185780.47 0 
185644.53 7.2836e-17 186208.70 0 
186072.46 7.2367e-17 186637.94 0 
186501.36 7.1919e-17 187068.14 0 
186931.26 7.1469e-17 187499.34 0 
187362.36 7.1018e-17 187931.75 0 
187794.25 7.0567e-17 188364.95 0 
188227.12 7.0114e-17 188799.14 0 
188661.00 6.9660e-17 189234.34 0 
189095.87 6.9205e-17 189670.53 0 
189531.76 6.8750e-17 190107.75 0 
189968.84 6.8322e-17 190546.16 0 
190406.74 6.7899e-17 190985.39 0 
190845.65 6.7475e-17 191425.62 0 
191285.56 6.7050e-17 191866.88 0 
191726.48 6.6624e-17 192309.14 0 
192168.42 6.6197e-17 192752.42 0 
192611.39 6.5769e-17 193196.73 0 
193055.59 6.5339e-17 193642.28 0 
193500.59 6.4917e-17 194088.64 0 
193946.63 6.4519e-17 194536.03 0 
194393.68 6.4120e-17 194984.44 0 
194841.77 6.3720e-17 195433.89 0 
195290.90 6.3319e-17 195884.39 0 
195741.27 6.2917e-17 196336.12 0 
196192.47 6.2514e-17 196788.70 0 
196644.71 6.2110e-17 197242.31 0 
197097.99 6.1706e-17 197696.97 0 
197552.31 6.1320e-17 198152.67 0 
198007.68 6.0944e-17 198609.42 0 
198464.10 6.0567e-17 199067.23 0 
198921.79 6.0190e-17 199526.31 0 
199380.32 5.9811e-17 199986.23 0 
199839.91 5.9432e-17 200447.22 0 
200300.55 5.9052e-17 200909.27 0 
200762.26 5.8671e-17 201372.38 0 
201225.04 5.8290e-17 201836.56 0 
201689.10 5.7936e-17 202302.03 0 
202154.00 5.7582e-17 202768.34 0 
202619.97 5.7226e-17 203235.73 0 
203087.04 5.6870e-17 203704.22 0 
203555.16 5.6513e-17 204173.77 0 
204024.38 5.6155e-17 204644.41 0 
204494.67 5.5796e-17 205116.12 0 
204966.26 5.5436e-17 205589.16 0 
205438.72 5.5088e-17 206063.05 0 
205912.28 5.4754e-17 206538.05 0 
206386.92 5.4419e-17 207014.12 0 
206862.66 5.4083e-17 207491.31 0 
207339.49 5.3747e-17 207969.59 0 
207817.43 5.3410e-17 208448.98 0 
208296.69 5.3072e-17 208929.70 0 
208776.82 5.2733e-17 209411.30 0 
209258.06 5.2394e-17 209894.00 0 
209740.43 5.2075e-17 210377.83 0 
210223.88 5.1760e-17 210862.75 0 
210708.47 5.1443e-17 211348.81 0 
211194.40 5.1126e-17 211836.22 0 
211681.22 5.0809e-17 212324.52 0 
212169.16 5.0491e-17 212813.94 0 
212658.22 5.0172e-17 213304.48 0 
213148.41 4.9852e-17 213796.17 0 
213639.73 4.9537e-17 214288.98 0 
214132.19 4.9240e-17 214782.94 0 
214626.02 4.8942e-17 215278.27 0 
215120.75 4.8643e-17 215774.50 0 
215616.62 4.8344e-17 216271.88 0 
216113.62 4.8044e-17 216770.39 0 
216611.78 4.7743e-17 217270.06 0 
217111.09 4.7442e-17 217770.89 0 
217611.79 4.7140e-17 218273.11 0 
218113.39 4.6851e-17 218776.23 0 
218616.16 4.6571e-17 219280.53 0 
219120.08 4.6289e-17 219785.98 0 
219625.17 4.6007e-17 220292.61 0 
220131.43 4.5725e-17 220800.41 0 
220638.84 4.5441e-17 221309.36 0 
221147.67 4.5157e-17 221819.73 0 
221657.43 4.4872e-17 222331.05 0 
222168.38 4.4588e-17 222843.55 0 
222680.48 4.4323e-17 223357.20 0 
223193.78 4.4058e-17 223872.06 0 
223708.26 4.3792e-17 224388.11 0 
224224.16 4.3525e-17 224905.58 0 
224741.01 4.3258e-17 225424.00 0 
225259.06 4.2991e-17 225943.62 0 
225778.30 4.2722e-17 226464.44 0 
226298.73 4.2453e-17 226986.45 0 
226820.36 4.2192e-17 227509.67 0 
227343.21 4.1942e-17 228034.11 0 
227867.50 4.1691e-17 228559.98 0 
228392.74 4.1440e-17 229086.83 0 
228919.21 4.1188e-17 229614.89 0 
229446.88 4.0936e-17 230144.17 0 
229975.78 4.0683e-17 230674.67 0 
230505.88 4.0429e-17 231206.39 0 
231037.22 4.0175e-17 231739.34 0 
231570.04 3.9936e-17 232273.78 0 
232103.82 3.9699e-17 232809.19 0 
232638.84 3.9462e-17 233345.83 0 
233175.08 3.9225e-17 233883.70 0 
233712.56 3.8987e-17 234422.81 0 
234251.30 3.8748e-17 234963.19 0 
234791.52 3.8509e-17 235505.05 0 
235332.73 3.8269e-17 236047.91 0 
235875.19 3.8033e-17 236592.02 0 
236418.90 3.7810e-17 237137.38 0 
236963.85 3.7586e-17 237683.98 0 
237510.08 3.7362e-17 238231.88 0 
238057.56 3.7138e-17 238781.02 0 
238606.55 3.6913e-17 239331.67 0 
239156.56 3.6687e-17 239883.36 0 
239707.82 3.6461e-17 240436.30 0 
240260.38 3.6234e-17 240990.53 0 
240814.20 3.6017e-17 241546.03 0 
241369.29 3.5807e-17 242102.81 0 
241925.93 3.5595e-17 242661.14 0 
242483.58 3.5383e-17 243220.48 0 
243042.52 3.5171e-17 243781.12 0 
243602.75 3.4958e-17 244343.06 0 
244164.28 3.4744e-17 244906.30 0 
244727.09 3.4531e-17 245470.81 0 
245291.20 3.4317e-17 246036.64 0 
245856.89 3.4117e-17 246604.05 0 
246423.60 3.3918e-17 247172.48 0 
246991.63 3.3718e-17 247742.23 0 
247560.96 3.3517e-17 248313.30 0 
248131.60 3.3317e-17 248885.67 0 
248703.56 3.3115e-17 249459.38 0 
249276.85 3.2913e-17 250034.41 0 
249851.72 3.2711e-17 250611.02 0 
255671.37 3.0815e-17 256448.36 0 
261626.85 2.9043e-17 262421.94 0 
267720.77 2.7380e-17 268534.38 0 
273956.94 2.5818e-17 274789.50 0 
280338.05 2.4350e-17 281190.00 0 
286868.11 2.2971e-17 287739.91 0 
293549.96 2.1681e-17 294442.06 0 
300387.78 2.0476e-17 301300.66 0 
307384.55 1.9342e-17 308318.69 0 
314544.60 1.8274e-17 315500.50 0 
321871.11 1.7270e-17 322849.28 0 
329368.64 1.6325e-17 330369.59 0 
337040.42 1.5438e-17 338064.69 0 
344891.28 2.5070e-17 345939.41 0 
