# An Atlas of Galaxy Spectral Energy Distributions from the Ultraviolet to the Mid-Infrared
# Brown et al. (2014)
# http://dx.doi.org/10.5072/03/529D3551F0117
# 
# Column 1 : Restframe Wavelength (Angstrom)
# Column 2 : Flux per unit wavelength (ergs/s/cm^2/Angstrom)
# Column 3 : Observed wavelength (Angstrom)
# Column 4 : Source (0 = model, 1 = Optical Spectrum, 2 = Akari, 3 = Spitzer IRS)
# 
   102.02 5.2978e-18    104.23 0 
   103.92 6.1958e-18    106.17 0 
   106.09 7.3977e-18    108.39 0 
   108.07 9.0385e-18    110.41 0 
   110.08 1.2505e-17    112.46 0 
   113.94 1.6600e-17    116.41 0 
   117.95 2.0850e-17    120.50 0 
   120.97 7.6049e-17    123.59 0 
   124.94 8.9350e-17    127.64 0 
   126.97 9.3993e-17    129.72 0 
   128.14 9.8196e-17    130.92 0 
   131.13 1.0425e-16    133.97 0 
   132.04 1.2193e-16    134.90 0 
   133.87 1.2592e-16    136.77 0 
   136.99 1.5456e-16    139.96 0 
   139.86 1.6259e-16    142.89 0 
   143.12 4.3964e-16    146.22 0 
   147.13 1.0235e-15    150.31 0 
   150.90 1.0571e-15    154.17 0 
   155.13 1.1043e-15    158.49 0 
   159.11 1.1590e-15    162.55 0 
   162.07 1.1943e-15    165.58 0 
   165.84 1.2592e-15    169.43 0 
   170.09 1.3035e-15    173.78 0 
   172.86 1.3431e-15    176.60 0 
   176.89 1.3871e-15    180.72 0 
   180.17 1.4194e-15    184.08 0 
   181.84 1.4424e-15    185.78 0 
   186.08 1.4863e-15    190.11 0 
   190.85 1.5385e-15    194.98 0 
   193.95 1.5816e-15    198.15 0 
   198.01 1.6184e-15    202.30 0 
   202.16 1.6676e-15    206.54 0 
   204.97 1.6986e-15    209.41 0 
   210.23 1.6715e-15    214.78 0 
   216.12 1.8034e-15    220.80 0 
   220.14 1.8539e-15    224.91 0 
   223.20 1.8582e-15    228.03 0 
   226.83 1.9147e-15    231.74 0 
   229.98 2.8516e-15    234.96 0 
   234.26 4.6784e-15    239.33 0 
   240.27 5.7424e-15    245.47 0 
   245.86 5.2735e-15    251.19 0 
   252.17 5.4966e-15    257.63 0 
   256.86 4.4884e-15    262.42 0 
   259.83 5.1891e-15    265.46 0 
   264.05 5.3963e-15    269.77 0 
   268.96 5.2978e-15    274.79 0 
   273.96 5.1772e-15    279.90 0 
   279.06 5.0594e-15    285.10 0 
   284.24 4.9899e-15    290.40 0 
   290.20 4.6569e-15    296.48 0 
   296.27 4.6036e-15    302.69 0 
   301.09 4.4371e-15    307.61 0 
   308.10 4.3863e-15    314.77 0 
   318.19 4.3261e-15    325.09 0 
   327.86 4.1696e-15    334.97 0 
   337.82 3.9820e-15    345.14 0 
   348.09 3.7940e-15    355.63 0 
   357.02 3.6821e-15    364.75 0 
   366.18 3.6316e-15    374.11 0 
   374.71 3.4922e-15    382.82 0 
   385.20 3.2144e-15    393.55 0 
   395.09 3.2441e-15    403.65 0 
   405.22 3.1849e-15    414.00 0 
   413.71 3.0697e-15    422.67 0 
   422.37 2.9315e-15    431.52 0 
   430.22 2.8255e-15    439.54 0 
   441.26 2.7612e-15    450.82 0 
   450.50 2.6491e-15    460.26 0 
   459.93 2.5240e-15    469.89 0 
   469.56 2.4383e-15    479.73 0 
   480.50 2.3938e-15    490.91 0 
   490.56 2.2444e-15    501.19 0 
   499.68 2.2444e-15    510.50 0 
   505.47 2.1434e-15    516.42 0 
   512.50 2.2861e-15    523.60 0 
   519.63 2.2136e-15    530.88 0 
   530.51 2.0994e-15    542.00 0 
   540.37 1.9324e-15    552.08 0 
   550.42 1.8539e-15    562.34 0 
   559.36 1.9147e-15    571.48 0 
   569.76 1.9280e-15    582.10 0 
   580.35 1.8497e-15    592.93 0 
   589.78 1.8201e-15    602.56 0 
   599.37 1.6753e-15    612.35 0 
   610.51 1.4591e-15    623.73 0 
   620.43 1.6830e-15    633.87 0 
   630.51 1.5999e-15    644.17 0 
   639.28 1.6184e-15    653.13 0 
   649.67 1.5563e-15    663.74 0 
   658.71 1.4760e-15    672.98 0 
   664.80 1.5209e-15    679.20 0 
   675.60 1.5104e-15    690.24 0 
   685.00 1.3807e-15    699.84 0 
   694.53 1.4358e-15    709.58 0 
   704.19 1.2885e-15    719.45 0 
   715.63 1.3871e-15    731.14 0 
   725.59 1.3649e-15    741.31 0 
   735.68 1.3431e-15    751.62 0 
   744.20 1.2915e-15    760.33 0 
   754.56 1.2592e-15    770.90 0 
   765.05 1.1197e-15    781.63 0 
   775.70 1.2109e-15    792.50 0 
   784.68 1.1300e-15    801.68 0 
   795.59 1.1511e-15    812.83 0 
   804.81 1.1484e-15    822.24 0 
   814.13 1.1300e-15    831.76 0 
   825.45 1.1171e-15    843.33 0 
   835.01 9.7072e-16    853.10 0 
   844.68 1.0668e-15    862.98 0 
   854.46 1.0378e-15    872.97 0 
   864.35 1.0378e-15    883.08 0 
   874.36 1.0259e-15    893.31 0 
   884.49 1.0072e-15    903.65 0 
   894.73 9.9333e-16    914.11 0 
   905.09 9.6626e-16    924.70 0 
   915.57 1.0002e-15    935.41 0 
   924.04 1.8034e-15    944.06 0 
   934.74 2.6308e-15    954.99 0 
   945.56 3.3814e-15    966.05 0 
   954.31 3.8734e-15    974.99 0 
   965.36 4.1124e-15    986.28 0 
   974.30 1.9103e-15    995.41 0 
   985.58 3.3581e-15   1006.93 0 
   994.70 3.2817e-15   1016.25 0 
  1003.90 4.0095e-15   1025.65 0 
  1015.53 4.0373e-15   1037.53 0 
  1024.92 2.6921e-15   1047.13 0 
  1034.41 3.4761e-15   1056.82 0 
  1043.98 4.7108e-15   1066.60 0 
  1056.07 4.5404e-15   1078.95 0 
  1065.84 3.8468e-15   1088.93 0 
  1075.70 4.2082e-15   1099.01 0 
  1085.65 3.5489e-15   1109.18 0 
  1095.70 4.2667e-15   1119.44 0 
  1105.84 4.0653e-15   1129.80 0 
  1116.07 3.9454e-15   1140.25 0 
  1123.81 3.5002e-15   1148.15 0 
  1134.20 4.1029e-15   1158.78 0 
  1144.70 3.8734e-15   1169.50 0 
  1155.29 3.9003e-15   1180.32 0 
  1165.98 3.8468e-15   1191.24 0 
  1174.06 2.7422e-15   1199.50 0 
  1184.93 3.6483e-15   1210.60 0 
  1195.89 3.0416e-15   1221.80 0 
  1204.18 2.5650e-15   1230.27 0 
  1215.32 2.0142e-15   1241.65 0 
  1223.75 2.9587e-15   1250.26 0 
  1235.07 3.5818e-15   1261.83 0 
  1243.63 3.6991e-15   1270.57 0 
  1255.14 3.5735e-15   1282.33 0 
  1263.84 3.3504e-15   1291.22 0 
  1275.53 3.7940e-15   1303.17 0 
  1284.37 3.8556e-15   1312.20 0 
  1296.26 3.2741e-15   1324.34 0 
  1305.24 3.2516e-15   1333.52 0 
  1314.29 3.7247e-15   1342.77 0 
  1326.45 3.5571e-15   1355.19 0 
  1335.65 3.2666e-15   1364.58 0 
  1344.90 3.6066e-15   1374.04 0 
  1354.23 3.4922e-15   1383.57 0 
  1363.61 3.2070e-15   1393.16 0 
  1376.23 3.2292e-15   1406.05 0 
  1385.77 3.1996e-15   1415.79 0 
  1395.38 2.5592e-15   1425.61 0 
  1405.05 2.5240e-15   1435.49 0 
  1414.79 2.9519e-15   1445.44 0 
  1424.60 2.9114e-15   1455.46 0 
  1434.47 2.9587e-15   1465.55 0 
  1441.09 3.0137e-15   1472.31 0 
  1447.74 3.0206e-15   1479.11 0 
  1454.43 2.9181e-15   1485.94 0 
  1464.51 2.7422e-15   1496.24 0 
  1474.66 2.7422e-15   1506.61 0 
  1484.88 2.7612e-15   1517.05 0 
  1495.17 2.7422e-15   1527.57 0 
  1505.54 2.6007e-15   1538.15 0 
  1512.49 2.3774e-15   1545.25 0 
  1515.97 2.4723e-15   1548.82 0 
  1526.48 2.4216e-15   1559.55 0 
  1533.53 2.1091e-15   1566.75 0 
  1544.16 2.0375e-15   1577.61 0 
  1554.86 1.9865e-15   1588.55 0 
  1565.64 2.1286e-15   1599.56 0 
  1576.49 2.2392e-15   1610.65 0 
  1583.77 2.2914e-15   1618.08 0 
  1594.75 2.3073e-15   1629.30 0 
  1605.80 2.2444e-15   1640.59 0 
  1613.21 2.2136e-15   1648.16 0 
  1624.39 2.1434e-15   1659.59 0 
  1635.65 2.2341e-15   1671.09 0 
  1643.20 2.2341e-15   1678.80 0 
  1654.59 2.1384e-15   1690.44 0 
  1666.06 2.2341e-15   1702.16 0 
  1673.75 2.0328e-15   1710.02 0 
  1677.61 2.2808e-15   1713.96 0 
  1685.36 2.2967e-15   1721.87 0 
  1693.13 2.1732e-15   1729.82 0 
  1704.87 2.1042e-15   1741.81 0 
  1716.69 1.9911e-15   1753.88 0 
  1724.61 1.9593e-15   1761.98 0 
  1736.57 2.0563e-15   1774.19 0 
  1744.58 2.0095e-15   1782.38 0 
  1756.68 2.0754e-15   1794.73 0 
  1764.78 1.9593e-15   1803.02 0 
  1777.02 1.9413e-15   1815.52 0 
  1785.22 1.9729e-15   1823.90 0 
  1793.46 2.0422e-15   1832.31 0 
  1805.89 2.0235e-15   1845.02 0 
  1814.23 1.8754e-15   1853.53 0 
  1826.80 1.9015e-15   1866.38 0 
  1835.23 1.8412e-15   1874.99 0 
  1843.71 1.7065e-15   1883.65 0 
  1856.49 1.7025e-15   1896.71 0 
  1865.05 1.7342e-15   1905.46 0 
  1873.66 1.8243e-15   1914.26 0 
  1886.65 1.6830e-15   1927.53 0 
  1895.36 1.6222e-15   1936.42 0 
  1904.11 1.7025e-15   1945.36 0 
  1912.90 1.6297e-15   1954.34 0 
  1926.16 1.5743e-15   1967.89 0 
  1935.05 1.6184e-15   1976.97 0 
  1943.98 1.6792e-15   1986.10 0 
  1952.95 1.5599e-15   1995.26 0 
  1966.49 1.6869e-15   2009.09 0 
  1975.57 1.7143e-15   2018.37 0 
  1984.68 1.6410e-15   2027.68 0 
  1993.85 1.5999e-15   2037.04 0 
  2003.05 1.6334e-15   2046.45 0 
  2016.93 1.5962e-15   2060.63 0 
  2026.24 1.6259e-15   2070.14 0 
  2035.60 1.5563e-15   2079.70 0 
  2044.99 1.5999e-15   2089.30 0 
  2054.43 1.4659e-15   2098.94 0 
  2063.91 1.4931e-15   2108.63 0 
  2073.44 1.6259e-15   2118.36 0 
  2078.22 1.7262e-15   2123.24 0 
  2083.01 1.8754e-15   2128.14 0 
  2092.62 1.7664e-15   2137.96 0 
  2107.13 1.7664e-15   2152.78 0 
  2116.86 1.8369e-15   2162.72 0 
  2126.63 1.7869e-15   2172.70 0 
  2136.44 1.7065e-15   2182.73 0 
  2146.31 1.8327e-15   2192.81 0 
  2156.21 1.8539e-15   2202.93 0 
  2166.17 1.7422e-15   2213.09 0 
  2176.16 1.7302e-15   2223.31 0 
  2186.21 1.8625e-15   2233.57 0 
  2196.30 1.8754e-15   2243.88 0 
  2206.44 1.8412e-15   2254.24 0 
  2216.62 1.6410e-15   2264.64 0 
  2226.85 1.7183e-15   2275.10 0 
  2237.13 1.9820e-15   2285.60 0 
  2247.46 1.9103e-15   2296.15 0 
  2252.64 1.6712e-15   2301.44 0 
  2263.04 1.6201e-15   2312.07 0 
  2273.48 1.6868e-15   2322.74 0 
  2283.98 1.9614e-15   2333.46 0 
  2294.52 1.7222e-15   2344.23 0 
  2305.11 1.9036e-15   2355.05 0 
  2315.75 1.7143e-15   2365.92 0 
  2326.44 1.4341e-15   2376.84 0 
  2337.18 1.4794e-15   2387.81 0 
  2342.56 1.2907e-15   2393.32 0 
  2353.38 1.6418e-15   2404.36 0 
  2364.24 1.3207e-15   2415.46 0 
  2375.15 1.4398e-15   2426.61 0 
  2386.12 1.1989e-15   2437.81 0 
  2397.13 1.3100e-15   2449.06 0 
  2402.66 1.2912e-15   2454.71 0 
  2413.75 1.3535e-15   2466.04 0 
  2424.89 1.7416e-15   2477.42 0 
  2436.08 1.7395e-15   2488.86 0 
  2447.32 1.9583e-15   2500.35 0 
  2452.97 2.0352e-15   2506.11 0 
  2464.29 1.7909e-15   2517.68 0 
  2475.66 1.6540e-15   2529.30 0 
  2487.09 1.2647e-15   2540.97 0 
  2492.82 1.3265e-15   2546.83 0 
  2504.33 1.7913e-15   2558.59 0 
  2515.89 1.1847e-15   2570.40 0 
  2527.50 1.1325e-15   2582.26 0 
  2533.33 1.4480e-15   2588.21 0 
  2545.02 1.4697e-15   2600.16 0 
  2556.77 2.3424e-15   2612.16 0 
  2562.66 1.8381e-15   2618.18 0 
  2574.49 2.2584e-15   2630.27 0 
  2586.37 2.0428e-15   2642.41 0 
  2592.34 1.8921e-15   2648.50 0 
  2604.30 1.7075e-15   2660.72 0 
  2616.32 1.5914e-15   2673.01 0 
  2622.35 1.9656e-15   2679.17 0 
  2634.46 3.1982e-15   2691.54 0 
  2646.62 4.1050e-15   2703.96 0 
  2652.72 5.9022e-15   2710.19 0 
  2664.96 3.6427e-15   2722.70 0 
  2677.27 4.0909e-15   2735.27 0 
  2683.44 4.8142e-15   2741.57 0 
  2695.82 3.4428e-15   2754.23 0 
  2702.04 4.3014e-15   2760.58 0 
  2714.51 3.1189e-15   2773.32 0 
  2727.04 2.3572e-15   2786.12 0 
  2733.33 3.0205e-15   2792.54 0 
  2745.94 1.9207e-15   2805.43 0 
  2752.27 2.4840e-15   2811.90 0 
  2764.98 3.1807e-15   2824.88 0 
  2777.74 3.3335e-15   2837.92 0 
  2784.14 2.1458e-15   2844.46 0 
  2796.99 1.2330e-15   2857.59 0 
  2803.44 1.4016e-15   2864.18 0 
  2816.38 2.9376e-15   2877.40 0 
  2822.87 4.1273e-15   2884.03 0 
  2835.90 3.7934e-15   2897.34 0 
  2842.44 2.6044e-15   2904.02 0 
  2855.56 1.6295e-15   2917.43 0 
  2862.14 3.6452e-15   2924.15 0 
  2875.35 5.3464e-15   2937.65 0 
  2881.98 4.8723e-15   2944.42 0 
  2895.29 6.2961e-15   2958.01 0 
  2908.65 8.7177e-15   2971.67 0 
  2928.81 7.4712e-15   2992.27 0 
  2949.11 6.7355e-15   3013.01 0 
  2969.56 6.9718e-15   3033.89 0 
  2990.14 7.0682e-15   3054.92 0 
  3010.87 6.8906e-15   3076.10 0 
  3031.74 7.5718e-15   3097.42 0 
  3052.75 7.8548e-15   3118.89 0 
  3066.84 8.9005e-15   3133.29 0 
  3088.10 8.5375e-15   3155.01 0 
  3109.51 1.0381e-14   3176.87 0 
  3131.06 9.3785e-15   3198.90 0 
  3152.76 9.4846e-15   3221.07 0 
  3167.32 1.0575e-14   3235.94 0 
  3189.27 8.9358e-15   3258.37 0 
  3211.38 9.8626e-15   3280.95 0 
  3233.64 8.1439e-15   3303.70 0 
  3248.56 1.2052e-14   3318.94 0 
  3271.08 1.4285e-14   3341.95 0 
  3293.76 1.3986e-14   3365.12 0 
  3308.96 1.2762e-14   3380.65 0 
  3324.23 1.2081e-14   3396.25 0 
  3331.90 1.2266e-14   3404.08 0 
  3339.58 1.0600e-14   3411.93 0 
  3347.27 1.3928e-14   3419.79 0 
  3354.99 1.3630e-14   3427.68 0 
  3362.73 9.0381e-15   3435.58 0 
  3370.48 1.0682e-14   3443.50 0 
  3378.25 1.2831e-14   3451.44 0 
  3386.04 1.2355e-14   3459.39 0 
  3393.84 1.2895e-14   3467.37 0 
  3401.66 1.5067e-14   3475.36 0 
  3409.51 1.2520e-14   3483.37 0 
  3417.37 1.0404e-14   3491.40 0 
  3425.24 1.3236e-14   3499.45 0 
  3433.14 1.5323e-14   3507.52 0 
  3441.05 1.1774e-14   3515.60 0 
  3448.99 1.1003e-14   3523.71 0 
  3456.94 1.2534e-14   3531.83 0 
  3464.91 1.0463e-14   3539.97 0 
  3472.89 1.3875e-14   3548.13 0 
  3480.90 1.0784e-14   3556.31 0 
  3488.92 1.2542e-14   3564.51 0 
  3496.97 1.1401e-14   3572.73 0 
  3505.03 1.4774e-14   3580.96 0 
  3513.11 1.2766e-14   3589.22 0 
  3521.21 1.5333e-14   3597.49 0 
  3529.32 1.0120e-14   3605.79 0 
  3537.46 1.4413e-14   3614.10 0 
  3545.61 1.4532e-14   3622.43 0 
  3553.79 1.5131e-14   3630.78 0 
  3561.98 1.3441e-14   3639.15 0 
  3570.19 1.0351e-14   3647.54 0 
  3574.56 1.2582e-14   3652.00 1 
  3576.51 1.2193e-14   3654.00 1 
  3578.47 1.2035e-14   3656.00 1 
  3580.43 1.1137e-14   3658.00 1 
  3582.39 1.0921e-14   3660.00 1 
  3584.35 1.0369e-14   3662.00 1 
  3586.30 1.0963e-14   3664.00 1 
  3588.26 1.1567e-14   3666.00 1 
  3590.22 1.2255e-14   3668.00 1 
  3592.18 1.2408e-14   3670.00 1 
  3594.13 1.2009e-14   3672.00 1 
  3596.09 1.3144e-14   3674.00 1 
  3598.05 1.3570e-14   3676.00 1 
  3600.01 1.4673e-14   3678.00 1 
  3601.96 1.4147e-14   3680.00 1 
  3603.92 1.3838e-14   3682.00 1 
  3605.88 1.3759e-14   3684.00 1 
  3607.84 1.3112e-14   3686.00 1 
  3609.79 1.3459e-14   3688.00 1 
  3611.75 1.4110e-14   3690.00 1 
  3613.71 1.4321e-14   3692.00 1 
  3615.67 1.4289e-14   3694.00 1 
  3617.62 1.5388e-14   3696.00 1 
  3619.58 1.6302e-14   3698.00 1 
  3621.54 1.6518e-14   3700.00 1 
  3623.50 1.5709e-14   3702.00 1 
  3625.45 1.5377e-14   3704.00 1 
  3627.41 1.5272e-14   3706.00 1 
  3629.37 1.4657e-14   3708.00 1 
  3631.33 1.4500e-14   3710.00 1 
  3633.28 1.5083e-14   3712.00 1 
  3635.24 1.3780e-14   3714.00 1 
  3637.20 1.3879e-14   3716.00 1 
  3639.16 1.4195e-14   3718.00 1 
  3641.12 1.5719e-14   3720.00 1 
  3643.07 1.6066e-14   3722.00 1 
  3645.03 1.6518e-14   3724.00 1 
  3646.99 1.5750e-14   3726.00 1 
  3648.95 1.4905e-14   3728.00 1 
  3650.90 1.5288e-14   3730.00 1 
  3652.86 1.7159e-14   3732.00 1 
  3654.82 1.9140e-14   3734.00 1 
  3656.78 1.8935e-14   3736.00 1 
  3658.73 2.0023e-14   3738.00 1 
  3660.69 2.0732e-14   3740.00 1 
  3662.65 2.2078e-14   3742.00 1 
  3664.61 2.0102e-14   3744.00 1 
  3666.56 1.9518e-14   3746.00 1 
  3668.52 1.7243e-14   3748.00 1 
  3670.48 1.8020e-14   3750.00 1 
  3672.44 1.8183e-14   3752.00 1 
  3674.39 1.8258e-14   3754.00 1 
  3676.35 1.8462e-14   3756.00 1 
  3678.31 1.8499e-14   3758.00 1 
  3680.27 1.9214e-14   3760.00 1 
  3682.22 1.7637e-14   3762.00 1 
  3684.18 1.6039e-14   3764.00 1 
  3686.14 1.5519e-14   3766.00 1 
  3688.10 1.7012e-14   3768.00 1 
  3690.05 1.9145e-14   3770.00 1 
  3692.01 1.9582e-14   3772.00 1 
  3693.97 1.9003e-14   3774.00 1 
  3695.93 1.8341e-14   3776.00 1 
  3697.89 1.8052e-14   3778.00 1 
  3699.84 1.9166e-14   3780.00 1 
  3701.80 1.7616e-14   3782.00 1 
  3703.76 1.8146e-14   3784.00 1 
  3705.72 1.7490e-14   3786.00 1 
  3707.67 1.8714e-14   3788.00 1 
  3709.63 1.9025e-14   3790.00 1 
  3711.59 1.8830e-14   3792.00 1 
  3713.55 1.8804e-14   3794.00 1 
  3715.50 1.7548e-14   3796.00 1 
  3717.46 1.7479e-14   3798.00 1 
  3719.42 1.7148e-14   3800.00 1 
  3721.38 1.7196e-14   3802.00 1 
  3723.33 1.7175e-14   3804.00 1 
  3725.29 1.6660e-14   3806.00 1 
  3727.25 1.6260e-14   3808.00 1 
  3729.21 1.5036e-14   3810.00 1 
  3731.16 1.4868e-14   3812.00 1 
  3733.12 1.5146e-14   3814.00 1 
  3735.08 1.4616e-14   3816.00 1 
  3737.04 1.3711e-14   3818.00 1 
  3738.99 1.2955e-14   3820.00 1 
  3740.95 1.4080e-14   3822.00 1 
  3742.91 1.5230e-14   3824.00 1 
  3744.87 1.5262e-14   3826.00 1 
  3746.83 1.4773e-14   3828.00 1 
  3748.78 1.3990e-14   3830.00 1 
  3750.74 1.4794e-14   3832.00 1 
  3752.70 1.5293e-14   3834.00 1 
  3754.66 1.5026e-14   3836.00 1 
  3756.61 1.4369e-14   3838.00 1 
  3758.57 1.5183e-14   3840.00 1 
  3760.53 1.6192e-14   3842.00 1 
  3762.49 1.6098e-14   3844.00 1 
  3764.44 1.5992e-14   3846.00 1 
  3766.40 1.6618e-14   3848.00 1 
  3768.36 1.8536e-14   3850.00 1 
  3770.32 1.8982e-14   3852.00 1 
  3772.27 1.9287e-14   3854.00 1 
  3774.23 1.9330e-14   3856.00 1 
  3776.19 1.9665e-14   3858.00 1 
  3778.15 2.1211e-14   3860.00 1 
  3780.10 2.1358e-14   3862.00 1 
  3782.06 2.2257e-14   3864.00 1 
  3784.02 2.1011e-14   3866.00 1 
  3785.98 1.9807e-14   3868.00 1 
  3787.93 1.7642e-14   3870.00 1 
  3789.89 1.6565e-14   3872.00 1 
  3791.85 1.6586e-14   3874.00 1 
  3793.81 1.6591e-14   3876.00 1 
  3795.76 1.6649e-14   3878.00 1 
  3797.72 1.6286e-14   3880.00 1 
  3799.68 1.6197e-14   3882.00 1 
  3801.64 1.6366e-14   3884.00 1 
  3803.60 1.7342e-14   3886.00 1 
  3805.55 1.7926e-14   3888.00 1 
  3807.51 1.7968e-14   3890.00 1 
  3809.47 1.7395e-14   3892.00 1 
  3811.43 1.6328e-14   3894.00 1 
  3813.38 1.5267e-14   3896.00 1 
  3815.34 1.4825e-14   3898.00 1 
  3817.30 1.4841e-14   3900.00 1 
  3819.26 1.4332e-14   3902.00 1 
  3821.21 1.3223e-14   3904.00 1 
  3823.17 1.2324e-14   3906.00 1 
  3825.13 1.2477e-14   3908.00 1 
  3827.09 1.1993e-14   3910.00 1 
  3829.04 1.2324e-14   3912.00 1 
  3831.00 1.1998e-14   3914.00 1 
  3832.96 1.2576e-14   3916.00 1 
  3834.92 1.2829e-14   3918.00 1 
  3836.87 1.2655e-14   3920.00 1 
  3838.83 1.3112e-14   3922.00 1 
  3840.79 1.3349e-14   3924.00 1 
  3842.75 1.3244e-14   3926.00 1 
  3844.70 1.3680e-14   3928.00 1 
  3846.66 1.4400e-14   3930.00 1 
  3848.62 1.4983e-14   3932.00 1 
  3850.58 1.4479e-14   3934.00 1 
  3852.53 1.4000e-14   3936.00 1 
  3854.49 1.3638e-14   3938.00 1 
  3856.45 1.4783e-14   3940.00 1 
  3858.41 1.5567e-14   3942.00 1 
  3860.37 1.6418e-14   3944.00 1 
  3862.32 1.5246e-14   3946.00 1 
  3864.28 1.4415e-14   3948.00 1 
  3866.24 1.4541e-14   3950.00 1 
  3868.20 1.4899e-14   3952.00 1 
  3870.15 1.4621e-14   3954.00 1 
  3872.11 1.3979e-14   3956.00 1 
  3874.07 1.4400e-14   3958.00 1 
  3876.03 1.5656e-14   3960.00 1 
  3877.98 1.6344e-14   3962.00 1 
  3879.94 1.5924e-14   3964.00 1 
  3881.90 1.5645e-14   3966.00 1 
  3883.86 1.5682e-14   3968.00 1 
  3885.81 1.5845e-14   3970.00 1 
  3887.77 1.6229e-14   3972.00 1 
  3889.73 1.8288e-14   3974.00 1 
  3891.69 1.9561e-14   3976.00 1 
  3893.64 2.0885e-14   3978.00 1 
  3895.60 2.1231e-14   3980.00 1 
  3897.56 2.2120e-14   3982.00 1 
  3899.52 2.2230e-14   3984.00 1 
  3901.47 2.1573e-14   3986.00 1 
  3903.43 2.1763e-14   3988.00 1 
  3905.39 2.2251e-14   3990.00 1 
  3907.35 2.2603e-14   3992.00 1 
  3909.30 2.2808e-14   3994.00 1 
  3911.26 2.2734e-14   3996.00 1 
  3913.22 2.3139e-14   3998.00 1 
  3915.18 2.2850e-14   4000.00 1 
  3917.14 2.2278e-14   4002.00 1 
  3919.09 2.1705e-14   4004.00 1 
  3921.05 2.0491e-14   4006.00 1 
  3923.01 1.9193e-14   4008.00 1 
  3924.97 1.7385e-14   4010.00 1 
  3926.92 1.6723e-14   4012.00 1 
  3928.88 1.5099e-14   4014.00 1 
  3930.84 1.3506e-14   4016.00 1 
  3932.80 1.2056e-14   4018.00 1 
  3934.75 1.2340e-14   4020.00 1 
  3936.71 1.3838e-14   4022.00 1 
  3938.67 1.4809e-14   4024.00 1 
  3940.63 1.5913e-14   4026.00 1 
  3942.58 1.6754e-14   4028.00 1 
  3944.54 1.8904e-14   4030.00 1 
  3946.50 2.0139e-14   4032.00 1 
  3948.46 2.1332e-14   4034.00 1 
  3950.41 2.1305e-14   4036.00 1 
  3952.37 2.2257e-14   4038.00 1 
  3954.33 2.2361e-14   4040.00 1 
  3956.29 2.2004e-14   4042.00 1 
  3958.24 2.0780e-14   4044.00 1 
  3960.20 1.9234e-14   4046.00 1 
  3962.16 1.8531e-14   4048.00 1 
  3964.12 1.6770e-14   4050.00 1 
  3966.07 1.6476e-14   4052.00 1 
  3968.03 1.5624e-14   4054.00 1 
  3969.99 1.5519e-14   4056.00 1 
  3971.95 1.5031e-14   4058.00 1 
  3973.91 1.6013e-14   4060.00 1 
  3975.86 1.8935e-14   4062.00 1 
  3977.82 2.2651e-14   4064.00 1 
  3979.78 2.5714e-14   4066.00 1 
  3981.74 2.6871e-14   4068.00 1 
  3983.69 2.8006e-14   4070.00 1 
  3985.65 2.7890e-14   4072.00 1 
  3987.61 2.9004e-14   4074.00 1 
  3989.57 2.9802e-14   4076.00 1 
  3991.52 3.1269e-14   4078.00 1 
  3993.48 3.1647e-14   4080.00 1 
  3995.44 3.1794e-14   4082.00 1 
  3997.40 3.1652e-14   4084.00 1 
  3999.35 3.2419e-14   4086.00 1 
  4001.31 3.2971e-14   4088.00 1 
  4003.27 3.3187e-14   4090.00 1 
  4005.23 3.2687e-14   4092.00 1 
  4007.18 3.2293e-14   4094.00 1 
  4009.14 3.3439e-14   4096.00 1 
  4011.10 3.3980e-14   4098.00 1 
  4013.06 3.4211e-14   4100.00 1 
  4015.01 3.4705e-14   4102.00 1 
  4016.97 3.5745e-14   4104.00 1 
  4018.93 3.5236e-14   4106.00 1 
  4020.89 3.4763e-14   4108.00 1 
  4022.85 3.4211e-14   4110.00 1 
  4024.80 3.4259e-14   4112.00 1 
  4026.76 3.3539e-14   4114.00 1 
  4028.72 3.2078e-14   4116.00 1 
  4030.68 3.2004e-14   4118.00 1 
  4032.63 3.1358e-14   4120.00 1 
  4034.59 3.1988e-14   4122.00 1 
  4036.55 3.3045e-14   4124.00 1 
  4038.51 3.2509e-14   4126.00 1 
  4040.46 3.2577e-14   4128.00 1 
  4042.42 3.2325e-14   4130.00 1 
  4044.38 3.3801e-14   4132.00 1 
  4046.34 3.3975e-14   4134.00 1 
  4048.29 3.3770e-14   4136.00 1 
  4050.25 3.3523e-14   4138.00 1 
  4052.21 3.3260e-14   4140.00 1 
  4054.17 3.3339e-14   4142.00 1 
  4056.12 3.2524e-14   4144.00 1 
  4058.08 3.1142e-14   4146.00 1 
  4060.04 3.0055e-14   4148.00 1 
  4062.00 2.9618e-14   4150.00 1 
  4063.95 3.0622e-14   4152.00 1 
  4065.91 3.0811e-14   4154.00 1 
  4067.87 3.2556e-14   4156.00 1 
  4069.83 3.3922e-14   4158.00 1 
  4071.78 3.4201e-14   4160.00 1 
  4073.74 3.4127e-14   4162.00 1 
  4075.70 3.3607e-14   4164.00 1 
  4077.66 3.3150e-14   4166.00 1 
  4079.62 3.2261e-14   4168.00 1 
  4081.57 3.2724e-14   4170.00 1 
  4083.53 3.5163e-14   4172.00 1 
  4085.49 3.7927e-14   4174.00 1 
  4087.45 3.8915e-14   4176.00 1 
  4089.40 3.8500e-14   4178.00 1 
  4091.36 3.7070e-14   4180.00 1 
  4093.32 3.6082e-14   4182.00 1 
  4095.28 3.4122e-14   4184.00 1 
  4097.23 3.2756e-14   4186.00 1 
  4099.19 3.2236e-14   4188.00 1 
  4101.15 3.2729e-14   4190.00 1 
  4103.11 3.3491e-14   4192.00 1 
  4105.06 3.2840e-14   4194.00 1 
  4107.02 3.2535e-14   4196.00 1 
  4108.98 3.2230e-14   4198.00 1 
  4110.94 3.3313e-14   4200.00 1 
  4112.89 3.3791e-14   4202.00 1 
  4114.85 3.4978e-14   4204.00 1 
  4116.81 3.5946e-14   4206.00 1 
  4118.77 3.6487e-14   4208.00 1 
  4120.72 3.5067e-14   4210.00 1 
  4122.68 3.2751e-14   4212.00 1 
  4124.64 3.2519e-14   4214.00 1 
  4126.60 3.2751e-14   4216.00 1 
  4128.55 3.3970e-14   4218.00 1 
  4130.51 3.3040e-14   4220.00 1 
  4132.47 3.2614e-14   4222.00 1 
  4134.43 3.2073e-14   4224.00 1 
  4136.39 3.1931e-14   4226.00 1 
  4138.34 3.1578e-14   4228.00 1 
  4140.30 3.0496e-14   4230.00 1 
  4142.26 3.0874e-14   4232.00 1 
  4144.22 3.0885e-14   4234.00 1 
  4146.17 3.1263e-14   4236.00 1 
  4148.13 3.0658e-14   4238.00 1 
  4150.09 3.0007e-14   4240.00 1 
  4152.05 3.0159e-14   4242.00 1 
  4154.00 3.1363e-14   4244.00 1 
  4155.96 3.2251e-14   4246.00 1 
  4157.92 3.2414e-14   4248.00 1 
  4159.88 3.1342e-14   4250.00 1 
  4161.83 3.1862e-14   4252.00 1 
  4163.79 3.2267e-14   4254.00 1 
  4165.75 3.2419e-14   4256.00 1 
  4167.71 3.2372e-14   4258.00 1 
  4169.66 3.2177e-14   4260.00 1 
  4171.62 3.2293e-14   4262.00 1 
  4173.58 3.2650e-14   4264.00 1 
  4175.54 3.3029e-14   4266.00 1 
  4177.49 3.3333e-14   4268.00 1 
  4179.45 3.2840e-14   4270.00 1 
  4181.41 3.2598e-14   4272.00 1 
  4183.37 3.2419e-14   4274.00 1 
  4185.32 3.2046e-14   4276.00 1 
  4187.28 3.1799e-14   4278.00 1 
  4189.24 3.2188e-14   4280.00 1 
  4191.20 3.2372e-14   4282.00 1 
  4193.16 3.2751e-14   4284.00 1 
  4195.11 3.3250e-14   4286.00 1 
  4197.07 3.3108e-14   4288.00 1 
  4199.03 3.2719e-14   4290.00 1 
  4200.99 3.2036e-14   4292.00 1 
  4202.94 3.1973e-14   4294.00 1 
  4204.90 3.2687e-14   4296.00 1 
  4206.86 3.3975e-14   4298.00 1 
  4208.82 3.5372e-14   4300.00 1 
  4210.77 3.5326e-14   4302.00 1 
  4212.73 3.4568e-14   4304.00 1 
  4214.69 3.4380e-14   4306.00 1 
  4216.65 3.4516e-14   4308.00 1 
  4218.60 3.4926e-14   4310.00 1 
  4220.56 3.4174e-14   4312.00 1 
  4222.52 3.4112e-14   4314.00 1 
  4224.48 3.3207e-14   4316.00 1 
  4226.43 3.2655e-14   4318.00 1 
  4228.39 3.2472e-14   4320.00 1 
  4230.35 3.2903e-14   4322.00 1 
  4232.31 3.3475e-14   4324.00 1 
  4234.26 3.3833e-14   4326.00 1 
  4236.22 3.4085e-14   4328.00 1 
  4238.18 3.4941e-14   4330.00 1 
  4240.14 3.5551e-14   4332.00 1 
  4242.10 3.6240e-14   4334.00 1 
  4244.05 3.7096e-14   4336.00 1 
  4246.01 3.7112e-14   4338.00 1 
  4247.97 3.7238e-14   4340.00 1 
  4249.93 3.5767e-14   4342.00 1 
  4251.88 3.5099e-14   4344.00 1 
  4253.84 3.3991e-14   4346.00 1 
  4255.80 3.3712e-14   4348.00 1 
  4257.76 3.3581e-14   4350.00 1 
  4259.71 3.3596e-14   4352.00 1 
  4261.67 3.4274e-14   4354.00 1 
  4263.63 3.5310e-14   4356.00 1 
  4265.59 3.6423e-14   4358.00 1 
  4267.54 3.6439e-14   4360.00 1 
  4269.50 3.5346e-14   4362.00 1 
  4271.46 3.4032e-14   4364.00 1 
  4273.42 3.3644e-14   4366.00 1 
  4275.37 3.3801e-14   4368.00 1 
  4277.33 3.3995e-14   4370.00 1 
  4279.29 3.3749e-14   4372.00 1 
  4281.25 3.4400e-14   4374.00 1 
  4283.20 3.5052e-14   4376.00 1 
  4285.16 3.5351e-14   4378.00 1 
  4287.12 3.4122e-14   4380.00 1 
  4289.08 3.2855e-14   4382.00 1 
  4291.03 3.2351e-14   4384.00 1 
  4292.99 3.1977e-14   4386.00 1 
  4294.95 3.1531e-14   4388.00 1 
  4296.91 3.0443e-14   4390.00 1 
  4298.87 2.9151e-14   4392.00 1 
  4300.82 2.7990e-14   4394.00 1 
  4302.78 2.7381e-14   4396.00 1 
  4304.74 2.6765e-14   4398.00 1 
  4306.70 2.6403e-14   4400.00 1 
  4308.65 2.7517e-14   4402.00 1 
  4310.61 2.9991e-14   4404.00 1 
  4312.57 3.2550e-14   4406.00 1 
  4314.53 3.4243e-14   4408.00 1 
  4316.48 3.5110e-14   4410.00 1 
  4318.44 3.5877e-14   4412.00 1 
  4320.40 3.5914e-14   4414.00 1 
  4322.36 3.6439e-14   4416.00 1 
  4324.31 3.7511e-14   4418.00 1 
  4326.27 3.8148e-14   4420.00 1 
  4328.23 3.9172e-14   4422.00 1 
  4330.19 3.9692e-14   4424.00 1 
  4332.14 3.9908e-14   4426.00 1 
  4334.10 3.9288e-14   4428.00 1 
  4336.06 3.8247e-14   4430.00 1 
  4338.02 3.9009e-14   4432.00 1 
  4339.97 3.8967e-14   4434.00 1 
  4341.93 3.8888e-14   4436.00 1 
  4343.89 3.8084e-14   4438.00 1 
  4345.85 3.8505e-14   4440.00 1 
  4347.80 3.9387e-14   4442.00 1 
  4349.76 4.0050e-14   4444.00 1 
  4351.72 4.0029e-14   4446.00 1 
  4353.68 4.0496e-14   4448.00 1 
  4355.64 4.0727e-14   4450.00 1 
  4357.59 4.1747e-14   4452.00 1 
  4359.55 4.2604e-14   4454.00 1 
  4361.51 4.4075e-14   4456.00 1 
  4363.47 4.4811e-14   4458.00 1 
  4365.42 4.4401e-14   4460.00 1 
  4367.38 4.2841e-14   4462.00 1 
  4369.34 4.1132e-14   4464.00 1 
  4371.30 4.0733e-14   4466.00 1 
  4373.25 4.0802e-14   4468.00 1 
  4375.21 4.0544e-14   4470.00 1 
  4377.17 3.9245e-14   4472.00 1 
  4379.13 3.8310e-14   4474.00 1 
  4381.08 3.7065e-14   4476.00 1 
  4383.04 3.6744e-14   4478.00 1 
  4385.00 3.6450e-14   4480.00 1 
  4386.96 3.6918e-14   4482.00 1 
  4388.91 3.7527e-14   4484.00 1 
  4390.87 3.8426e-14   4486.00 1 
  4392.83 3.9382e-14   4488.00 1 
  4394.79 4.0413e-14   4490.00 1 
  4396.74 3.9640e-14   4492.00 1 
  4398.70 3.9792e-14   4494.00 1 
  4400.66 3.9593e-14   4496.00 1 
  4402.62 4.0344e-14   4498.00 1 
  4404.57 4.0276e-14   4500.00 1 
  4406.53 4.0859e-14   4502.00 1 
  4408.49 4.1837e-14   4504.00 1 
  4410.45 4.2814e-14   4506.00 1 
  4412.41 4.3119e-14   4508.00 1 
  4414.36 4.2851e-14   4510.00 1 
  4416.32 4.2683e-14   4512.00 1 
  4418.28 4.3329e-14   4514.00 1 
  4420.24 4.4369e-14   4516.00 1 
  4422.19 4.4291e-14   4518.00 1 
  4424.15 4.3812e-14   4520.00 1 
  4426.11 4.3934e-14   4522.00 1 
  4428.07 4.4107e-14   4524.00 1 
  4430.02 4.3812e-14   4526.00 1 
  4431.98 4.3618e-14   4528.00 1 
  4433.94 4.4328e-14   4530.00 1 
  4435.90 4.5032e-14   4532.00 1 
  4437.85 4.4554e-14   4534.00 1 
  4439.81 4.5111e-14   4536.00 1 
  4441.77 4.5725e-14   4538.00 1 
  4443.73 4.6020e-14   4540.00 1 
  4445.68 4.5636e-14   4542.00 1 
  4447.64 4.5642e-14   4544.00 1 
  4449.60 4.5447e-14   4546.00 1 
  4451.56 4.5321e-14   4548.00 1 
  4453.51 4.4585e-14   4550.00 1 
  4455.47 4.4039e-14   4552.00 1 
  4457.43 4.3413e-14   4554.00 1 
  4459.39 4.2841e-14   4556.00 1 
  4461.34 4.3171e-14   4558.00 1 
  4463.30 4.3340e-14   4560.00 1 
  4465.26 4.3929e-14   4562.00 1 
  4467.22 4.5505e-14   4564.00 1 
  4469.18 4.6808e-14   4566.00 1 
  4471.13 4.7869e-14   4568.00 1 
  4473.09 4.8290e-14   4570.00 1 
  4475.05 4.8863e-14   4572.00 1 
  4477.01 4.9630e-14   4574.00 1 
  4478.96 5.0056e-14   4576.00 1 
  4480.92 4.8737e-14   4578.00 1 
  4482.88 4.8737e-14   4580.00 1 
  4484.84 4.8022e-14   4582.00 1 
  4486.79 4.9441e-14   4584.00 1 
  4488.75 4.9451e-14   4586.00 1 
  4490.71 4.9115e-14   4588.00 1 
  4492.67 4.8821e-14   4590.00 1 
  4494.62 4.8537e-14   4592.00 1 
  4496.58 4.8895e-14   4594.00 1 
  4498.54 4.9210e-14   4596.00 1 
  4500.50 4.9131e-14   4598.00 1 
  4502.45 5.0061e-14   4600.00 1 
  4504.41 5.0692e-14   4602.00 1 
  4506.37 5.1281e-14   4604.00 1 
  4508.33 5.1359e-14   4606.00 1 
  4510.28 5.2316e-14   4608.00 1 
  4512.24 5.3219e-14   4610.00 1 
  4514.20 5.2699e-14   4612.00 1 
  4516.16 5.1385e-14   4614.00 1 
  4518.12 5.0466e-14   4616.00 1 
  4520.07 5.0812e-14   4618.00 1 
  4522.03 5.1102e-14   4620.00 1 
  4523.99 5.0356e-14   4622.00 1 
  4525.95 4.8711e-14   4624.00 1 
  4527.90 4.6472e-14   4626.00 1 
  4529.86 4.4806e-14   4628.00 1 
  4531.82 4.4969e-14   4630.00 1 
  4533.78 4.5473e-14   4632.00 1 
  4535.73 4.6545e-14   4634.00 1 
  4537.69 4.6304e-14   4636.00 1 
  4539.65 4.6178e-14   4638.00 1 
  4541.61 4.7071e-14   4640.00 1 
  4543.56 4.7848e-14   4642.00 1 
  4545.52 4.8905e-14   4644.00 1 
  4547.48 4.8979e-14   4646.00 1 
  4549.44 4.9105e-14   4648.00 1 
  4551.39 4.9252e-14   4650.00 1 
  4553.35 4.9499e-14   4652.00 1 
  4555.31 4.9866e-14   4654.00 1 
  4557.27 5.0555e-14   4656.00 1 
  4559.22 5.1753e-14   4658.00 1 
  4561.18 5.3135e-14   4660.00 1 
  4563.14 5.3209e-14   4662.00 1 
  4565.10 5.2273e-14   4664.00 1 
  4567.05 5.1748e-14   4666.00 1 
  4569.01 5.1485e-14   4668.00 1 
  4570.97 5.2216e-14   4670.00 1 
  4572.93 5.1774e-14   4672.00 1 
  4574.89 5.1884e-14   4674.00 1 
  4576.84 5.0908e-14   4676.00 1 
  4578.80 5.0260e-14   4678.00 1 
  4580.76 4.9346e-14   4680.00 1 
  4582.72 4.8884e-14   4682.00 1 
  4584.67 4.9568e-14   4684.00 1 
  4586.63 5.0640e-14   4686.00 1 
  4588.59 5.1333e-14   4688.00 1 
  4590.55 5.0918e-14   4690.00 1 
  4592.50 5.0655e-14   4692.00 1 
  4594.46 5.0834e-14   4694.00 1 
  4596.42 5.0418e-14   4696.00 1 
  4598.38 4.9919e-14   4698.00 1 
  4600.33 4.9410e-14   4700.00 1 
  4602.29 5.0260e-14   4702.00 1 
  4604.25 5.0665e-14   4704.00 1 
  4606.21 5.1091e-14   4706.00 1 
  4608.16 5.0802e-14   4708.00 1 
  4610.12 5.1023e-14   4710.00 1 
  4612.08 5.1932e-14   4712.00 1 
  4614.04 5.3031e-14   4714.00 1 
  4615.99 5.3556e-14   4716.00 1 
  4617.95 5.3046e-14   4718.00 1 
  4619.91 5.2715e-14   4720.00 1 
  4621.87 5.2457e-14   4722.00 1 
  4623.82 5.2663e-14   4724.00 1 
  4625.78 5.3288e-14   4726.00 1 
  4627.74 5.3477e-14   4728.00 1 
  4629.70 5.3109e-14   4730.00 1 
  4631.66 5.2090e-14   4732.00 1 
  4633.61 5.1774e-14   4734.00 1 
  4635.57 5.1554e-14   4736.00 1 
  4637.53 5.1412e-14   4738.00 1 
  4639.49 5.0645e-14   4740.00 1 
  4641.44 4.9967e-14   4742.00 1 
  4643.40 4.9041e-14   4744.00 1 
  4645.36 4.8384e-14   4746.00 1 
  4647.32 4.8338e-14   4748.00 1 
  4649.27 4.9021e-14   4750.00 1 
  4651.23 4.9210e-14   4752.00 1 
  4653.19 4.9284e-14   4754.00 1 
  4655.15 4.8863e-14   4756.00 1 
  4657.10 4.9247e-14   4758.00 1 
  4659.06 4.9284e-14   4760.00 1 
  4661.02 4.9756e-14   4762.00 1 
  4662.98 4.9352e-14   4764.00 1 
  4664.93 4.8448e-14   4766.00 1 
  4666.89 4.7444e-14   4768.00 1 
  4668.85 4.7628e-14   4770.00 1 
  4670.81 4.8311e-14   4772.00 1 
  4672.76 4.8285e-14   4774.00 1 
  4674.72 4.8206e-14   4776.00 1 
  4676.68 4.7869e-14   4778.00 1 
  4678.64 4.7717e-14   4780.00 1 
  4680.59 4.7954e-14   4782.00 1 
  4682.55 4.7633e-14   4784.00 1 
  4684.51 4.8080e-14   4786.00 1 
  4686.47 4.7318e-14   4788.00 1 
  4688.43 4.7885e-14   4790.00 1 
  4690.38 4.8695e-14   4792.00 1 
  4692.34 4.9268e-14   4794.00 1 
  4694.30 4.8905e-14   4796.00 1 
  4696.26 4.7549e-14   4798.00 1 
  4698.21 4.7281e-14   4800.00 1 
  4700.17 4.6529e-14   4802.00 1 
  4702.13 4.5836e-14   4804.00 1 
  4704.09 4.6020e-14   4806.00 1 
  4706.04 4.6477e-14   4808.00 1 
  4708.00 4.7307e-14   4810.00 1 
  4709.96 4.7428e-14   4812.00 1 
  4711.92 4.7691e-14   4814.00 1 
  4713.87 4.8563e-14   4816.00 1 
  4715.83 4.9052e-14   4818.00 1 
  4717.79 5.0119e-14   4820.00 1 
  4719.75 5.0776e-14   4822.00 1 
  4721.70 5.1186e-14   4824.00 1 
  4723.66 5.1764e-14   4826.00 1 
  4725.62 5.1354e-14   4828.00 1 
  4727.58 5.0024e-14   4830.00 1 
  4729.53 4.9142e-14   4832.00 1 
  4731.49 4.8868e-14   4834.00 1 
  4733.45 4.9247e-14   4836.00 1 
  4735.41 4.9336e-14   4838.00 1 
  4737.36 4.9951e-14   4840.00 1 
  4739.32 5.1206e-14   4842.00 1 
  4741.28 5.2237e-14   4844.00 1 
  4743.24 5.2983e-14   4846.00 1 
  4745.20 5.3183e-14   4848.00 1 
  4747.15 5.2278e-14   4850.00 1 
  4749.11 5.1586e-14   4852.00 1 
  4751.07 5.1117e-14   4854.00 1 
  4753.03 5.1480e-14   4856.00 1 
  4754.98 5.1706e-14   4858.00 1 
  4756.94 5.1433e-14   4860.00 1 
  4758.90 5.0797e-14   4862.00 1 
  4760.86 5.0030e-14   4864.00 1 
  4762.81 4.9783e-14   4866.00 1 
  4764.77 5.0161e-14   4868.00 1 
  4766.73 4.9573e-14   4870.00 1 
  4768.69 4.8826e-14   4872.00 1 
  4770.64 4.8059e-14   4874.00 1 
  4772.60 4.8684e-14   4876.00 1 
  4774.56 4.9604e-14   4878.00 1 
  4776.52 5.0335e-14   4880.00 1 
  4778.47 5.0219e-14   4882.00 1 
  4780.43 5.0350e-14   4884.00 1 
  4782.39 5.0061e-14   4886.00 1 
  4784.35 5.0245e-14   4888.00 1 
  4786.30 4.9930e-14   4890.00 1 
  4788.26 4.9699e-14   4892.00 1 
  4790.22 4.9730e-14   4894.00 1 
  4792.18 5.0513e-14   4896.00 1 
  4794.14 5.1964e-14   4898.00 1 
  4796.09 5.2794e-14   4900.00 1 
  4798.05 5.2683e-14   4902.00 1 
  4800.01 5.1921e-14   4904.00 1 
  4801.97 5.1753e-14   4906.00 1 
  4803.92 5.0965e-14   4908.00 1 
  4805.88 5.1281e-14   4910.00 1 
  4807.84 5.0886e-14   4912.00 1 
  4809.80 5.1937e-14   4914.00 1 
  4811.75 5.1480e-14   4916.00 1 
  4813.71 5.1449e-14   4918.00 1 
  4815.67 5.0975e-14   4920.00 1 
  4817.63 5.1348e-14   4922.00 1 
  4819.58 5.1764e-14   4924.00 1 
  4821.54 5.2142e-14   4926.00 1 
  4823.50 5.1669e-14   4928.00 1 
  4825.46 5.1133e-14   4930.00 1 
  4827.41 5.0528e-14   4932.00 1 
  4829.37 5.0266e-14   4934.00 1 
  4831.33 4.9730e-14   4936.00 1 
  4833.29 4.8900e-14   4938.00 1 
  4835.24 4.8674e-14   4940.00 1 
  4837.20 4.8863e-14   4942.00 1 
  4839.16 4.9158e-14   4944.00 1 
  4841.12 4.9268e-14   4946.00 1 
  4843.07 4.9367e-14   4948.00 1 
  4845.03 4.9662e-14   4950.00 1 
  4846.99 5.0061e-14   4952.00 1 
  4848.95 4.9940e-14   4954.00 1 
  4850.91 4.9314e-14   4956.00 1 
  4852.86 4.8212e-14   4958.00 1 
  4854.82 4.6787e-14   4960.00 1 
  4856.78 4.5830e-14   4962.00 1 
  4858.74 4.5315e-14   4964.00 1 
  4860.69 4.5731e-14   4966.00 1 
  4862.65 4.4964e-14   4968.00 1 
  4864.61 4.4937e-14   4970.00 1 
  4866.57 4.4995e-14   4972.00 1 
  4868.52 4.6109e-14   4974.00 1 
  4870.48 4.6361e-14   4976.00 1 
  4872.44 4.6325e-14   4978.00 1 
  4874.40 4.6425e-14   4980.00 1 
  4876.35 4.6514e-14   4982.00 1 
  4878.31 4.6514e-14   4984.00 1 
  4880.27 4.6998e-14   4986.00 1 
  4882.23 4.7223e-14   4988.00 1 
  4884.18 4.7076e-14   4990.00 1 
  4886.14 4.7071e-14   4992.00 1 
  4888.10 4.7271e-14   4994.00 1 
  4890.06 4.8138e-14   4996.00 1 
  4892.01 4.8668e-14   4998.00 1 
  4893.97 4.8920e-14   5000.00 1 
  4895.93 4.9951e-14   5002.00 1 
  4897.89 5.0849e-14   5004.00 1 
  4899.84 5.1417e-14   5006.00 1 
  4901.80 5.1018e-14   5008.00 1 
  4903.76 5.0230e-14   5010.00 1 
  4905.72 4.9814e-14   5012.00 1 
  4907.68 4.9641e-14   5014.00 1 
  4909.63 4.9456e-14   5016.00 1 
  4911.59 4.8942e-14   5018.00 1 
  4913.55 4.8411e-14   5020.00 1 
  4915.51 4.7749e-14   5022.00 1 
  4917.46 4.7312e-14   5024.00 1 
  4919.42 4.7260e-14   5026.00 1 
  4921.38 4.7512e-14   5028.00 1 
  4923.34 4.7402e-14   5030.00 1 
  4925.29 4.8054e-14   5032.00 1 
  4927.25 4.8705e-14   5034.00 1 
  4929.21 4.9962e-14   5036.00 1 
  4931.17 4.9462e-14   5038.00 1 
  4933.12 4.8868e-14   5040.00 1 
  4935.08 4.8926e-14   5042.00 1 
  4937.04 4.9178e-14   5044.00 1 
  4939.00 4.9478e-14   5046.00 1 
  4940.95 4.9262e-14   5048.00 1 
  4942.91 4.9410e-14   5050.00 1 
  4944.87 4.9730e-14   5052.00 1 
  4946.83 5.0214e-14   5054.00 1 
  4948.78 5.0492e-14   5056.00 1 
  4950.74 5.0129e-14   5058.00 1 
  4952.70 4.9383e-14   5060.00 1 
  4954.66 4.8332e-14   5062.00 1 
  4956.61 4.7864e-14   5064.00 1 
  4958.57 4.7145e-14   5066.00 1 
  4960.53 4.7207e-14   5068.00 1 
  4962.49 4.7896e-14   5070.00 1 
  4964.45 4.8821e-14   5072.00 1 
  4966.40 4.8784e-14   5074.00 1 
  4968.36 4.7607e-14   5076.00 1 
  4970.32 4.6872e-14   5078.00 1 
  4972.28 4.6634e-14   5080.00 1 
  4974.23 4.7549e-14   5082.00 1 
  4976.19 4.7601e-14   5084.00 1 
  4978.15 4.7124e-14   5086.00 1 
  4980.11 4.5972e-14   5088.00 1 
  4982.06 4.5420e-14   5090.00 1 
  4984.02 4.5368e-14   5092.00 1 
  4985.98 4.4980e-14   5094.00 1 
  4987.94 4.5084e-14   5096.00 1 
  4989.89 4.5552e-14   5098.00 1 
  4991.85 4.5805e-14   5100.00 1 
  4993.81 4.5431e-14   5102.00 1 
  4995.77 4.5179e-14   5104.00 1 
  4997.72 4.5152e-14   5106.00 1 
  4999.68 4.4822e-14   5108.00 1 
  5001.64 4.4233e-14   5110.00 1 
  5003.60 4.3986e-14   5112.00 1 
  5005.55 4.3629e-14   5114.00 1 
  5007.51 4.2672e-14   5116.00 1 
  5009.47 4.2037e-14   5118.00 1 
  5011.43 4.3224e-14   5120.00 1 
  5013.39 4.4690e-14   5122.00 1 
  5015.34 4.5647e-14   5124.00 1 
  5017.30 4.5463e-14   5126.00 1 
  5019.26 4.5452e-14   5128.00 1 
  5021.22 4.5405e-14   5130.00 1 
  5023.17 4.4905e-14   5132.00 1 
  5025.13 4.4517e-14   5134.00 1 
  5027.09 4.4422e-14   5136.00 1 
  5029.05 4.4653e-14   5138.00 1 
  5031.00 4.5442e-14   5140.00 1 
  5032.96 4.6309e-14   5142.00 1 
  5034.92 4.6588e-14   5144.00 1 
  5036.88 4.5773e-14   5146.00 1 
  5038.83 4.5473e-14   5148.00 1 
  5040.79 4.5400e-14   5150.00 1 
  5042.75 4.4958e-14   5152.00 1 
  5044.71 4.4206e-14   5154.00 1 
  5046.66 4.4937e-14   5156.00 1 
  5048.62 4.6572e-14   5158.00 1 
  5050.58 4.7239e-14   5160.00 1 
  5052.54 4.7244e-14   5162.00 1 
  5054.49 4.7050e-14   5164.00 1 
  5056.45 4.7355e-14   5166.00 1 
  5058.41 4.7433e-14   5168.00 1 
  5060.37 4.7486e-14   5170.00 1 
  5062.32 4.7307e-14   5172.00 1 
  5064.28 4.6577e-14   5174.00 1 
  5066.24 4.5972e-14   5176.00 1 
  5068.20 4.5363e-14   5178.00 1 
  5070.16 4.5037e-14   5180.00 1 
  5072.11 4.5026e-14   5182.00 1 
  5074.07 4.5116e-14   5184.00 1 
  5076.03 4.4779e-14   5186.00 1 
  5077.99 4.4317e-14   5188.00 1 
  5079.94 4.4822e-14   5190.00 1 
  5081.90 4.5516e-14   5192.00 1 
  5083.86 4.5583e-14   5194.00 1 
  5085.82 4.4859e-14   5196.00 1 
  5087.77 4.4517e-14   5198.00 1 
  5089.73 4.4659e-14   5200.00 1 
  5091.69 4.5074e-14   5202.00 1 
  5093.65 4.5552e-14   5204.00 1 
  5095.60 4.6025e-14   5206.00 1 
  5097.56 4.6361e-14   5208.00 1 
  5099.52 4.6514e-14   5210.00 1 
  5101.48 4.6508e-14   5212.00 1 
  5103.43 4.5851e-14   5214.00 1 
  5105.39 4.4648e-14   5216.00 1 
  5107.35 4.3807e-14   5218.00 1 
  5109.31 4.4428e-14   5220.00 1 
  5111.26 4.5389e-14   5222.00 1 
  5113.22 4.6199e-14   5224.00 1 
  5115.18 4.6519e-14   5226.00 1 
  5117.14 4.6341e-14   5228.00 1 
  5119.09 4.5830e-14   5230.00 1 
  5121.05 4.4895e-14   5232.00 1 
  5123.01 4.4333e-14   5234.00 1 
  5124.97 4.3981e-14   5236.00 1 
  5126.93 4.4548e-14   5238.00 1 
  5128.88 4.5747e-14   5240.00 1 
  5130.84 4.5841e-14   5242.00 1 
  5132.80 4.5426e-14   5244.00 1 
  5134.76 4.5248e-14   5246.00 1 
  5136.71 4.5962e-14   5248.00 1 
  5138.67 4.5688e-14   5250.00 1 
  5140.63 4.4717e-14   5252.00 1 
  5142.59 4.4018e-14   5254.00 1 
  5144.54 4.3692e-14   5256.00 1 
  5146.50 4.3214e-14   5258.00 1 
  5148.46 4.2604e-14   5260.00 1 
  5150.42 4.2315e-14   5262.00 1 
  5152.37 4.2383e-14   5264.00 1 
  5154.33 4.2735e-14   5266.00 1 
  5156.29 4.2641e-14   5268.00 1 
  5158.25 4.1794e-14   5270.00 1 
  5160.20 4.0802e-14   5272.00 1 
  5162.16 4.0244e-14   5274.00 1 
  5164.12 4.0024e-14   5276.00 1 
  5166.08 3.9119e-14   5278.00 1 
  5168.03 3.7843e-14   5280.00 1 
  5169.99 3.7359e-14   5282.00 1 
  5171.95 3.7838e-14   5284.00 1 
  5173.91 3.7990e-14   5286.00 1 
  5175.86 3.7138e-14   5288.00 1 
  5177.82 3.6087e-14   5290.00 1 
  5179.78 3.6155e-14   5292.00 1 
  5181.74 3.6750e-14   5294.00 1 
  5183.70 3.7354e-14   5296.00 1 
  5185.65 3.7554e-14   5298.00 1 
  5187.61 3.7843e-14   5300.00 1 
  5189.57 3.9057e-14   5302.00 1 
  5191.53 4.0896e-14   5304.00 1 
  5193.48 4.2872e-14   5306.00 1 
  5195.44 4.4012e-14   5308.00 1 
  5197.40 4.4280e-14   5310.00 1 
  5199.36 4.4044e-14   5312.00 1 
  5201.31 4.3707e-14   5314.00 1 
  5203.27 4.4259e-14   5316.00 1 
  5205.23 4.4733e-14   5318.00 1 
  5207.19 4.4664e-14   5320.00 1 
  5209.14 4.4364e-14   5322.00 1 
  5211.10 4.4722e-14   5324.00 1 
  5213.06 4.5599e-14   5326.00 1 
  5215.02 4.5784e-14   5328.00 1 
  5216.97 4.5300e-14   5330.00 1 
  5218.93 4.5379e-14   5332.00 1 
  5220.89 4.6335e-14   5334.00 1 
  5222.85 4.7512e-14   5336.00 1 
  5224.80 4.7460e-14   5338.00 1 
  5226.76 4.7244e-14   5340.00 1 
  5228.72 4.7712e-14   5342.00 1 
  5230.68 4.8453e-14   5344.00 1 
  5232.63 4.8695e-14   5346.00 1 
  5234.59 4.8427e-14   5348.00 1 
  5236.55 4.8753e-14   5350.00 1 
  5238.51 4.9783e-14   5352.00 1 
  5240.47 5.0498e-14   5354.00 1 
  5242.42 5.0193e-14   5356.00 1 
  5244.38 4.8895e-14   5358.00 1 
  5246.34 4.8233e-14   5360.00 1 
  5248.30 4.8773e-14   5362.00 1 
  5250.25 5.0077e-14   5364.00 1 
  5252.21 5.1059e-14   5366.00 1 
  5254.17 5.0424e-14   5368.00 1 
  5256.13 4.9000e-14   5370.00 1 
  5258.08 4.7670e-14   5372.00 1 
  5260.04 4.6976e-14   5374.00 1 
  5262.00 4.6776e-14   5376.00 1 
  5263.96 4.6566e-14   5378.00 1 
  5265.91 4.6682e-14   5380.00 1 
  5267.87 4.6872e-14   5382.00 1 
  5269.83 4.7418e-14   5384.00 1 
  5271.79 4.8411e-14   5386.00 1 
  5273.74 4.9062e-14   5388.00 1 
  5275.70 4.8826e-14   5390.00 1 
  5277.66 4.8627e-14   5392.00 1 
  5279.62 4.9215e-14   5394.00 1 
  5281.57 5.0377e-14   5396.00 1 
  5283.53 5.1212e-14   5398.00 1 
  5285.49 5.1233e-14   5400.00 1 
  5287.45 5.1149e-14   5402.00 1 
  5289.41 5.1595e-14   5404.00 1 
  5291.36 5.2379e-14   5406.00 1 
  5293.32 5.2731e-14   5408.00 1 
  5295.28 5.1764e-14   5410.00 1 
  5297.24 5.0019e-14   5412.00 1 
  5299.19 4.8826e-14   5414.00 1 
  5301.15 4.9236e-14   5416.00 1 
  5303.11 5.1091e-14   5418.00 1 
  5305.07 5.2784e-14   5420.00 1 
  5307.02 5.3950e-14   5422.00 1 
  5308.98 5.4775e-14   5424.00 1 
  5310.94 5.5159e-14   5426.00 1 
  5312.90 5.5033e-14   5428.00 1 
  5314.85 5.4334e-14   5430.00 1 
  5316.81 5.4071e-14   5432.00 1 
  5318.77 5.4544e-14   5434.00 1 
  5320.73 5.4071e-14   5436.00 1 
  5322.68 5.2168e-14   5438.00 1 
  5324.64 4.9830e-14   5440.00 1 
  5326.60 4.9199e-14   5442.00 1 
  5328.56 5.0266e-14   5444.00 1 
  5330.51 5.1065e-14   5446.00 1 
  5332.47 5.1433e-14   5448.00 1 
  5334.43 5.1511e-14   5450.00 1 
  5336.39 5.1511e-14   5452.00 1 
  5338.34 5.1217e-14   5454.00 1 
  5340.30 5.1533e-14   5456.00 1 
  5342.26 5.1995e-14   5458.00 1 
  5344.22 5.1969e-14   5460.00 1 
  5346.18 5.1501e-14   5462.00 1 
  5348.13 5.1485e-14   5464.00 1 
  5350.09 5.2757e-14   5466.00 1 
  5352.05 5.4334e-14   5468.00 1 
  5354.01 5.4444e-14   5470.00 1 
  5355.96 5.3608e-14   5472.00 1 
  5357.92 5.2883e-14   5474.00 1 
  5359.88 5.3356e-14   5476.00 1 
  5361.84 5.3430e-14   5478.00 1 
  5363.79 5.3068e-14   5480.00 1 
  5365.75 5.3109e-14   5482.00 1 
  5367.71 5.3572e-14   5484.00 1 
  5369.67 5.3125e-14   5486.00 1 
  5371.62 5.2000e-14   5488.00 1 
  5373.58 5.1396e-14   5490.00 1 
  5375.54 5.1533e-14   5492.00 1 
  5377.50 5.2846e-14   5494.00 1 
  5379.45 5.4245e-14   5496.00 1 
  5381.41 5.4701e-14   5498.00 1 
  5383.37 5.3240e-14   5500.00 1 
  5385.33 5.1680e-14   5502.00 1 
  5387.28 5.1854e-14   5504.00 1 
  5389.24 5.2584e-14   5506.00 1 
  5391.20 5.2715e-14   5508.00 1 
  5393.16 5.2395e-14   5510.00 1 
  5395.11 5.2715e-14   5512.00 1 
  5397.07 5.2809e-14   5514.00 1 
  5399.03 5.2016e-14   5516.00 1 
  5400.99 5.0876e-14   5518.00 1 
  5402.95 5.0571e-14   5520.00 1 
  5404.90 5.0776e-14   5522.00 1 
  5406.86 5.1359e-14   5524.00 1 
  5408.82 5.1748e-14   5526.00 1 
  5410.78 5.1906e-14   5528.00 1 
  5412.73 5.2258e-14   5530.00 1 
  5414.69 5.2815e-14   5532.00 1 
  5416.65 5.3545e-14   5534.00 1 
  5418.61 5.3462e-14   5536.00 1 
  5420.56 5.3451e-14   5538.00 1 
  5422.52 5.3735e-14   5540.00 1 
  5424.48 5.3551e-14   5542.00 1 
  5426.44 5.2836e-14   5544.00 1 
  5428.39 5.1943e-14   5546.00 1 
  5430.35 5.1717e-14   5548.00 1 
  5432.31 5.1690e-14   5550.00 1 
  5434.27 5.2100e-14   5552.00 1 
  5436.22 5.2305e-14   5554.00 1 
  5438.18 5.1900e-14   5556.00 1 
  5440.14 5.2016e-14   5558.00 1 
  5442.10 5.2221e-14   5560.00 1 
  5444.05 5.3025e-14   5562.00 1 
  5446.01 5.2931e-14   5564.00 1 
  5447.97 5.3020e-14   5566.00 1 
  5449.93 5.2857e-14   5568.00 1 
  5451.88 5.2615e-14   5570.00 1 
  5453.84 5.2368e-14   5572.00 1 
  5455.80 5.2127e-14   5574.00 1 
  5457.76 5.1884e-14   5576.00 1 
  5459.72 5.1638e-14   5578.00 1 
  5461.67 5.1396e-14   5580.00 1 
  5463.63 5.1149e-14   5582.00 1 
  5465.59 5.0908e-14   5584.00 1 
  5467.55 5.0665e-14   5586.00 1 
  5469.50 5.0418e-14   5588.00 1 
  5471.46 5.0171e-14   5590.00 1 
  5473.42 4.9898e-14   5592.00 1 
  5475.38 4.9678e-14   5594.00 1 
  5477.33 5.0030e-14   5596.00 1 
  5479.29 5.1034e-14   5598.00 1 
  5481.25 5.2037e-14   5600.00 1 
  5483.21 5.1790e-14   5602.00 1 
  5485.16 5.0923e-14   5604.00 1 
  5487.12 5.0581e-14   5606.00 1 
  5489.08 5.1459e-14   5608.00 1 
  5491.04 5.2647e-14   5610.00 1 
  5492.99 5.3052e-14   5612.00 1 
  5494.95 5.2678e-14   5614.00 1 
  5496.91 5.2195e-14   5616.00 1 
  5498.87 5.1737e-14   5618.00 1 
  5500.82 5.1675e-14   5620.00 1 
  5502.78 5.1869e-14   5622.00 1 
  5504.74 5.2163e-14   5624.00 1 
  5506.70 5.2284e-14   5626.00 1 
  5508.65 5.2163e-14   5628.00 1 
  5510.61 5.2310e-14   5630.00 1 
  5512.57 5.2137e-14   5632.00 1 
  5514.53 5.2100e-14   5634.00 1 
  5516.49 5.2552e-14   5636.00 1 
  5518.44 5.3345e-14   5638.00 1 
  5520.40 5.3366e-14   5640.00 1 
  5522.36 5.2962e-14   5642.00 1 
  5524.32 5.3188e-14   5644.00 1 
  5526.27 5.3645e-14   5646.00 1 
  5528.23 5.3787e-14   5648.00 1 
  5530.19 5.3671e-14   5650.00 1 
  5532.15 5.4071e-14   5652.00 1 
  5534.10 5.3719e-14   5654.00 1 
  5536.06 5.2736e-14   5656.00 1 
  5538.02 5.1943e-14   5658.00 1 
  5539.98 5.2468e-14   5660.00 1 
  5541.93 5.3556e-14   5662.00 1 
  5543.89 5.4302e-14   5664.00 1 
  5545.85 5.4575e-14   5666.00 1 
  5547.81 5.4413e-14   5668.00 1 
  5549.76 5.4413e-14   5670.00 1 
  5551.72 5.4827e-14   5672.00 1 
  5553.68 5.5290e-14   5674.00 1 
  5555.64 5.4676e-14   5676.00 1 
  5557.59 5.3850e-14   5678.00 1 
  5559.55 5.3467e-14   5680.00 1 
  5561.51 5.3104e-14   5682.00 1 
  5563.47 5.2447e-14   5684.00 1 
  5565.43 5.1895e-14   5686.00 1 
  5567.38 5.2594e-14   5688.00 1 
  5569.34 5.3613e-14   5690.00 1 
  5571.30 5.3881e-14   5692.00 1 
  5573.26 5.3377e-14   5694.00 1 
  5575.21 5.2852e-14   5696.00 1 
  5577.17 5.2873e-14   5698.00 1 
  5579.13 5.2704e-14   5700.00 1 
  5581.09 5.2026e-14   5702.00 1 
  5583.04 5.1737e-14   5704.00 1 
  5585.00 5.1985e-14   5706.00 1 
  5586.96 5.1943e-14   5708.00 1 
  5588.92 5.0970e-14   5710.00 1 
  5590.87 5.0892e-14   5712.00 1 
  5592.83 5.1611e-14   5714.00 1 
  5594.79 5.2106e-14   5716.00 1 
  5596.75 5.1275e-14   5718.00 1 
  5598.70 5.0629e-14   5720.00 1 
  5600.66 5.0755e-14   5722.00 1 
  5602.62 5.1149e-14   5724.00 1 
  5604.58 5.1181e-14   5726.00 1 
  5606.53 5.1302e-14   5728.00 1 
  5608.49 5.2048e-14   5730.00 1 
  5610.45 5.3041e-14   5732.00 1 
  5612.41 5.3214e-14   5734.00 1 
  5614.36 5.2752e-14   5736.00 1 
  5616.32 5.2152e-14   5738.00 1 
  5618.28 5.1943e-14   5740.00 1 
  5620.24 5.1696e-14   5742.00 1 
  5622.20 5.1533e-14   5744.00 1 
  5624.15 5.1737e-14   5746.00 1 
  5626.11 5.2016e-14   5748.00 1 
  5628.07 5.2106e-14   5750.00 1 
  5630.03 5.2137e-14   5752.00 1 
  5631.98 5.2337e-14   5754.00 1 
  5633.94 5.2258e-14   5756.00 1 
  5635.90 5.1958e-14   5758.00 1 
  5637.86 5.1732e-14   5760.00 1 
  5639.81 5.1932e-14   5762.00 1 
  5641.77 5.2205e-14   5764.00 1 
  5643.73 5.2253e-14   5766.00 1 
  5645.69 5.2263e-14   5768.00 1 
  5647.64 5.2599e-14   5770.00 1 
  5649.60 5.2956e-14   5772.00 1 
  5651.56 5.3199e-14   5774.00 1 
  5653.52 5.3025e-14   5776.00 1 
  5655.47 5.2326e-14   5778.00 1 
  5657.43 5.1737e-14   5780.00 1 
  5659.39 5.1212e-14   5782.00 1 
  5661.35 5.0892e-14   5784.00 1 
  5663.30 5.1286e-14   5786.00 1 
  5665.26 5.2106e-14   5788.00 1 
  5667.22 5.3009e-14   5790.00 1 
  5669.18 5.2741e-14   5792.00 1 
  5671.13 5.1863e-14   5794.00 1 
  5673.09 5.1937e-14   5796.00 1 
  5675.05 5.3031e-14   5798.00 1 
  5677.01 5.3435e-14   5800.00 1 
  5678.97 5.3104e-14   5802.00 1 
  5680.92 5.2431e-14   5804.00 1 
  5682.88 5.2573e-14   5806.00 1 
  5684.84 5.2920e-14   5808.00 1 
  5686.80 5.3194e-14   5810.00 1 
  5688.75 5.3535e-14   5812.00 1 
  5690.71 5.3356e-14   5814.00 1 
  5692.67 5.2820e-14   5816.00 1 
  5694.63 5.2516e-14   5818.00 1 
  5696.58 5.2804e-14   5820.00 1 
  5698.54 5.3046e-14   5822.00 1 
  5700.50 5.3057e-14   5824.00 1 
  5702.46 5.2667e-14   5826.00 1 
  5704.41 5.2037e-14   5828.00 1 
  5706.37 5.1554e-14   5830.00 1 
  5708.33 5.1632e-14   5832.00 1 
  5710.29 5.2226e-14   5834.00 1 
  5712.24 5.2457e-14   5836.00 1 
  5714.20 5.2658e-14   5838.00 1 
  5716.16 5.2846e-14   5840.00 1 
  5718.12 5.2988e-14   5842.00 1 
  5720.07 5.2931e-14   5844.00 1 
  5722.03 5.3120e-14   5846.00 1 
  5723.99 5.4029e-14   5848.00 1 
  5725.95 5.5132e-14   5850.00 1 
  5727.90 5.5737e-14   5852.00 1 
  5729.86 5.6105e-14   5854.00 1 
  5731.82 5.6142e-14   5856.00 1 
  5733.78 5.5606e-14   5858.00 1 
  5735.74 5.5180e-14   5860.00 1 
  5737.69 5.5237e-14   5862.00 1 
  5739.65 5.6005e-14   5864.00 1 
  5741.61 5.6226e-14   5866.00 1 
  5743.57 5.5890e-14   5868.00 1 
  5745.52 5.5611e-14   5870.00 1 
  5747.48 5.5600e-14   5872.00 1 
  5749.44 5.5690e-14   5874.00 1 
  5751.40 5.5642e-14   5876.00 1 
  5753.35 5.5274e-14   5878.00 1 
  5755.31 5.4949e-14   5880.00 1 
  5757.27 5.4691e-14   5882.00 1 
  5759.23 5.4696e-14   5884.00 1 
  5761.18 5.4607e-14   5886.00 1 
  5763.14 5.4523e-14   5888.00 1 
  5765.10 5.4433e-14   5890.00 1 
  5767.06 5.4344e-14   5892.00 1 
  5769.01 5.4260e-14   5894.00 1 
  5770.97 5.4170e-14   5896.00 1 
  5772.93 5.4087e-14   5898.00 1 
  5774.89 5.3998e-14   5900.00 1 
  5776.84 5.3719e-14   5902.00 1 
  5778.80 5.3750e-14   5904.00 1 
  5780.76 5.3740e-14   5906.00 1 
  5782.72 5.3561e-14   5908.00 1 
  5784.68 5.3545e-14   5910.00 1 
  5786.63 5.4234e-14   5912.00 1 
  5788.59 5.5511e-14   5914.00 1 
  5790.55 5.5963e-14   5916.00 1 
  5792.51 5.5306e-14   5918.00 1 
  5794.46 5.4607e-14   5920.00 1 
  5796.42 5.4838e-14   5922.00 1 
  5798.38 5.5800e-14   5924.00 1 
  5800.34 5.6488e-14   5926.00 1 
  5802.29 5.6494e-14   5928.00 1 
  5804.25 5.6252e-14   5930.00 1 
  5806.21 5.6089e-14   5932.00 1 
  5808.17 5.5884e-14   5934.00 1 
  5810.12 5.5432e-14   5936.00 1 
  5812.08 5.4885e-14   5938.00 1 
  5814.04 5.4591e-14   5940.00 1 
  5816.00 5.4549e-14   5942.00 1 
  5817.95 5.4969e-14   5944.00 1 
  5819.91 5.6089e-14   5946.00 1 
  5821.87 5.7224e-14   5948.00 1 
  5823.83 5.7775e-14   5950.00 1 
  5825.78 5.7418e-14   5952.00 1 
  5827.74 5.7045e-14   5954.00 1 
  5829.70 5.7140e-14   5956.00 1 
  5831.66 5.7319e-14   5958.00 1 
  5833.61 5.7056e-14   5960.00 1 
  5835.57 5.6263e-14   5962.00 1 
  5837.53 5.5727e-14   5964.00 1 
  5839.49 5.5753e-14   5966.00 1 
  5841.45 5.5464e-14   5968.00 1 
  5843.40 5.4207e-14   5970.00 1 
  5845.36 5.2457e-14   5972.00 1 
  5847.32 5.1343e-14   5974.00 1 
  5849.28 5.0965e-14   5976.00 1 
  5851.23 5.1591e-14   5978.00 1 
  5853.19 5.2395e-14   5980.00 1 
  5855.15 5.2621e-14   5982.00 1 
  5857.11 5.2778e-14   5984.00 1 
  5859.06 5.3178e-14   5986.00 1 
  5861.02 5.3945e-14   5988.00 1 
  5862.98 5.3745e-14   5990.00 1 
  5864.94 5.3361e-14   5992.00 1 
  5866.89 5.3540e-14   5994.00 1 
  5868.85 5.3929e-14   5996.00 1 
  5870.81 5.3351e-14   5998.00 1 
  5872.77 5.2242e-14   6000.00 1 
  5874.72 5.1059e-14   6002.00 1 
  5876.68 4.9746e-14   6004.00 1 
  5878.64 4.7717e-14   6006.00 1 
  5880.60 4.5599e-14   6008.00 1 
  5882.55 4.4480e-14   6010.00 1 
  5884.51 4.4291e-14   6012.00 1 
  5886.47 4.3949e-14   6014.00 1 
  5888.43 4.3445e-14   6016.00 1 
  5890.38 4.3224e-14   6018.00 1 
  5892.34 4.3082e-14   6020.00 1 
  5894.30 4.3282e-14   6022.00 1 
  5896.26 4.3908e-14   6024.00 1 
  5898.22 4.5337e-14   6026.00 1 
  5900.17 4.6551e-14   6028.00 1 
  5902.13 4.7323e-14   6030.00 1 
  5904.09 4.8085e-14   6032.00 1 
  5906.05 4.8979e-14   6034.00 1 
  5908.00 4.9699e-14   6036.00 1 
  5909.96 4.9903e-14   6038.00 1 
  5911.92 4.9704e-14   6040.00 1 
  5913.88 4.9515e-14   6042.00 1 
  5915.83 4.9804e-14   6044.00 1 
  5917.79 5.0528e-14   6046.00 1 
  5919.75 5.1201e-14   6048.00 1 
  5921.71 5.1712e-14   6050.00 1 
  5923.66 5.2116e-14   6052.00 1 
  5925.62 5.2353e-14   6054.00 1 
  5927.58 5.2174e-14   6056.00 1 
  5929.54 5.2521e-14   6058.00 1 
  5931.49 5.3482e-14   6060.00 1 
  5933.45 5.4454e-14   6062.00 1 
  5935.41 5.4381e-14   6064.00 1 
  5937.37 5.3577e-14   6066.00 1 
  5939.32 5.3020e-14   6068.00 1 
  5941.28 5.2910e-14   6070.00 1 
  5943.24 5.2647e-14   6072.00 1 
  5945.20 5.2200e-14   6074.00 1 
  5947.15 5.1727e-14   6076.00 1 
  5949.11 5.1501e-14   6078.00 1 
  5951.07 5.1186e-14   6080.00 1 
  5953.03 5.0834e-14   6082.00 1 
  5954.99 5.0855e-14   6084.00 1 
  5956.94 5.1212e-14   6086.00 1 
  5958.90 5.1653e-14   6088.00 1 
  5960.86 5.1722e-14   6090.00 1 
  5962.82 5.1449e-14   6092.00 1 
  5964.77 5.1385e-14   6094.00 1 
  5966.73 5.1822e-14   6096.00 1 
  5968.69 5.2778e-14   6098.00 1 
  5970.65 5.3624e-14   6100.00 1 
  5972.60 5.4060e-14   6102.00 1 
  5974.56 5.3998e-14   6104.00 1 
  5976.52 5.3493e-14   6106.00 1 
  5978.48 5.2941e-14   6108.00 1 
  5980.43 5.2673e-14   6110.00 1 
  5982.39 5.2521e-14   6112.00 1 
  5984.35 5.2127e-14   6114.00 1 
  5986.31 5.1669e-14   6116.00 1 
  5988.26 5.1937e-14   6118.00 1 
  5990.22 5.2852e-14   6120.00 1 
  5992.18 5.3135e-14   6122.00 1 
  5994.14 5.2584e-14   6124.00 1 
  5996.09 5.1606e-14   6126.00 1 
  5998.05 5.1201e-14   6128.00 1 
  6000.01 5.1243e-14   6130.00 1 
  6001.97 5.1396e-14   6132.00 1 
  6003.92 5.1359e-14   6134.00 1 
  6005.88 5.0938e-14   6136.00 1 
  6007.84 5.0944e-14   6138.00 1 
  6009.80 5.1296e-14   6140.00 1 
  6011.76 5.1580e-14   6142.00 1 
  6013.71 5.1490e-14   6144.00 1 
  6015.67 5.1822e-14   6146.00 1 
  6017.63 5.2578e-14   6148.00 1 
  6019.59 5.3194e-14   6150.00 1 
  6021.54 5.3719e-14   6152.00 1 
  6023.50 5.4087e-14   6154.00 1 
  6025.46 5.4170e-14   6156.00 1 
  6027.42 5.3530e-14   6158.00 1 
  6029.37 5.3025e-14   6160.00 1 
  6031.33 5.2926e-14   6162.00 1 
  6033.29 5.2857e-14   6164.00 1 
  6035.25 5.2342e-14   6166.00 1 
  6037.20 5.1895e-14   6168.00 1 
  6039.16 5.2079e-14   6170.00 1 
  6041.12 5.2688e-14   6172.00 1 
  6043.08 5.2809e-14   6174.00 1 
  6045.03 5.2867e-14   6176.00 1 
  6046.99 5.3425e-14   6178.00 1 
  6048.95 5.4623e-14   6180.00 1 
  6050.91 5.5317e-14   6182.00 1 
  6052.86 5.5143e-14   6184.00 1 
  6054.82 5.4617e-14   6186.00 1 
  6056.78 5.4307e-14   6188.00 1 
  6058.74 5.4417e-14   6190.00 1 
  6060.70 5.4565e-14   6192.00 1 
  6062.65 5.4470e-14   6194.00 1 
  6064.61 5.4176e-14   6196.00 1 
  6066.57 5.3735e-14   6198.00 1 
  6068.53 5.3462e-14   6200.00 1 
  6070.48 5.3435e-14   6202.00 1 
  6072.44 5.3714e-14   6204.00 1 
  6074.40 5.3430e-14   6206.00 1 
  6076.36 5.2273e-14   6208.00 1 
  6078.31 5.1286e-14   6210.00 1 
  6080.27 5.1385e-14   6212.00 1 
  6082.23 5.2337e-14   6214.00 1 
  6084.19 5.2999e-14   6216.00 1 
  6086.14 5.3283e-14   6218.00 1 
  6088.10 5.3514e-14   6220.00 1 
  6090.06 5.3924e-14   6222.00 1 
  6092.02 5.4339e-14   6224.00 1 
  6093.97 5.4497e-14   6226.00 1 
  6095.93 5.4060e-14   6228.00 1 
  6097.89 5.3372e-14   6230.00 1 
  6099.85 5.3199e-14   6232.00 1 
  6101.80 5.3393e-14   6234.00 1 
  6103.76 5.3498e-14   6236.00 1 
  6105.72 5.2878e-14   6238.00 1 
  6107.68 5.1822e-14   6240.00 1 
  6109.63 5.0986e-14   6242.00 1 
  6111.59 5.0382e-14   6244.00 1 
  6113.55 4.9925e-14   6246.00 1 
  6115.51 4.9657e-14   6248.00 1 
  6117.47 4.9646e-14   6250.00 1 
  6119.42 5.0250e-14   6252.00 1 
  6121.38 5.1201e-14   6254.00 1 
  6123.34 5.2058e-14   6256.00 1 
  6125.30 5.2784e-14   6258.00 1 
  6127.25 5.3036e-14   6260.00 1 
  6129.21 5.2557e-14   6262.00 1 
  6131.17 5.2436e-14   6264.00 1 
  6133.13 5.2899e-14   6266.00 1 
  6135.08 5.3588e-14   6268.00 1 
  6137.04 5.2994e-14   6270.00 1 
  6139.00 5.1480e-14   6272.00 1 
  6140.96 5.0402e-14   6274.00 1 
  6142.91 4.9809e-14   6276.00 1 
  6144.87 4.8984e-14   6278.00 1 
  6146.83 4.8311e-14   6280.00 1 
  6148.79 4.8600e-14   6282.00 1 
  6150.74 4.9389e-14   6284.00 1 
  6152.70 4.9467e-14   6286.00 1 
  6154.66 4.8285e-14   6288.00 1 
  6156.62 4.7733e-14   6290.00 1 
  6158.57 4.7728e-14   6292.00 1 
  6160.53 4.8327e-14   6294.00 1 
  6162.49 4.8327e-14   6296.00 1 
  6164.45 4.8327e-14   6298.00 1 
  6166.40 4.8327e-14   6300.00 1 
  6168.36 4.8327e-14   6302.00 1 
  6170.32 4.8327e-14   6304.00 1 
  6172.28 4.8327e-14   6306.00 1 
  6174.24 4.8327e-14   6308.00 1 
  6176.19 4.8474e-14   6310.00 1 
  6178.15 4.8406e-14   6312.00 1 
  6180.11 4.8695e-14   6314.00 1 
  6182.07 4.9278e-14   6316.00 1 
  6184.02 5.0187e-14   6318.00 1 
  6185.98 5.0392e-14   6320.00 1 
  6187.94 4.9525e-14   6322.00 1 
  6189.90 4.8458e-14   6324.00 1 
  6191.85 4.8059e-14   6326.00 1 
  6193.81 4.8233e-14   6328.00 1 
  6195.77 4.8716e-14   6330.00 1 
  6197.73 4.8821e-14   6332.00 1 
  6199.68 4.8526e-14   6334.00 1 
  6201.64 4.8206e-14   6336.00 1 
  6203.60 4.8185e-14   6338.00 1 
  6205.56 4.8684e-14   6340.00 1 
  6207.51 4.8968e-14   6342.00 1 
  6209.47 4.9016e-14   6344.00 1 
  6211.43 4.8815e-14   6346.00 1 
  6213.39 4.8395e-14   6348.00 1 
  6215.34 4.8033e-14   6350.00 1 
  6217.30 4.7786e-14   6352.00 1 
  6219.26 4.7749e-14   6354.00 1 
  6221.22 4.7586e-14   6356.00 1 
  6223.17 4.7449e-14   6358.00 1 
  6225.13 4.7318e-14   6360.00 1 
  6227.09 4.7181e-14   6362.00 1 
  6229.05 4.7050e-14   6364.00 1 
  6231.01 4.6913e-14   6366.00 1 
  6232.96 4.6782e-14   6368.00 1 
  6234.92 4.6645e-14   6370.00 1 
  6236.88 4.6508e-14   6372.00 1 
  6238.84 4.6377e-14   6374.00 1 
  6240.79 4.6183e-14   6376.00 1 
  6242.75 4.6004e-14   6378.00 1 
  6244.71 4.6246e-14   6380.00 1 
  6246.67 4.6755e-14   6382.00 1 
  6248.62 4.6998e-14   6384.00 1 
  6250.58 4.6508e-14   6386.00 1 
  6252.54 4.6403e-14   6388.00 1 
  6254.50 4.6882e-14   6390.00 1 
  6256.45 4.7433e-14   6392.00 1 
  6258.41 4.7408e-14   6394.00 1 
  6260.37 4.7013e-14   6396.00 1 
  6262.33 4.7003e-14   6398.00 1 
  6264.28 4.7355e-14   6400.00 1 
  6266.24 4.7754e-14   6402.00 1 
  6268.20 4.7802e-14   6404.00 1 
  6270.16 4.7408e-14   6406.00 1 
  6272.11 4.7145e-14   6408.00 1 
  6274.07 4.6850e-14   6410.00 1 
  6276.03 4.6897e-14   6412.00 1 
  6277.99 4.7438e-14   6414.00 1 
  6279.94 4.8164e-14   6416.00 1 
  6281.90 4.8636e-14   6418.00 1 
  6283.86 4.8890e-14   6420.00 1 
  6285.82 4.9746e-14   6422.00 1 
  6287.78 5.0576e-14   6424.00 1 
  6289.73 5.0802e-14   6426.00 1 
  6291.69 5.0366e-14   6428.00 1 
  6293.65 4.9872e-14   6430.00 1 
  6295.61 4.9284e-14   6432.00 1 
  6297.56 4.8863e-14   6434.00 1 
  6299.52 4.8920e-14   6436.00 1 
  6301.48 4.9456e-14   6438.00 1 
  6303.44 4.9882e-14   6440.00 1 
  6305.39 4.9809e-14   6442.00 1 
  6307.35 4.9546e-14   6444.00 1 
  6309.31 4.9178e-14   6446.00 1 
  6311.27 4.8805e-14   6448.00 1 
  6313.22 4.8338e-14   6450.00 1 
  6315.18 4.7875e-14   6452.00 1 
  6317.14 4.7802e-14   6454.00 1 
  6319.10 4.8279e-14   6456.00 1 
  6321.05 4.9336e-14   6458.00 1 
  6323.01 5.0523e-14   6460.00 1 
  6324.97 5.1254e-14   6462.00 1 
  6326.93 5.1391e-14   6464.00 1 
  6328.88 5.1018e-14   6466.00 1 
  6330.84 5.0492e-14   6468.00 1 
  6332.80 5.0056e-14   6470.00 1 
  6334.76 4.9651e-14   6472.00 1 
  6336.72 4.9336e-14   6474.00 1 
  6338.67 4.9241e-14   6476.00 1 
  6340.63 4.9089e-14   6478.00 1 
  6342.59 4.8679e-14   6480.00 1 
  6344.55 4.8153e-14   6482.00 1 
  6346.50 4.8164e-14   6484.00 1 
  6348.46 4.8695e-14   6486.00 1 
  6350.42 4.8989e-14   6488.00 1 
  6352.38 4.8957e-14   6490.00 1 
  6354.33 4.8532e-14   6492.00 1 
  6356.29 4.8242e-14   6494.00 1 
  6358.25 4.8400e-14   6496.00 1 
  6360.21 4.9163e-14   6498.00 1 
  6362.16 4.9977e-14   6500.00 1 
  6364.12 5.0056e-14   6502.00 1 
  6366.08 4.9956e-14   6504.00 1 
  6368.04 5.0402e-14   6506.00 1 
  6369.99 5.0886e-14   6508.00 1 
  6371.95 5.0413e-14   6510.00 1 
  6373.91 4.9935e-14   6512.00 1 
  6375.87 4.9667e-14   6514.00 1 
  6377.82 4.9903e-14   6516.00 1 
  6379.78 4.9967e-14   6518.00 1 
  6381.74 5.0014e-14   6520.00 1 
  6383.70 5.0171e-14   6522.00 1 
  6385.65 5.0040e-14   6524.00 1 
  6387.61 5.0203e-14   6526.00 1 
  6389.57 5.0645e-14   6528.00 1 
  6391.53 5.0986e-14   6530.00 1 
  6393.49 5.0902e-14   6532.00 1 
  6395.44 5.0692e-14   6534.00 1 
  6397.40 5.0624e-14   6536.00 1 
  6399.36 5.0624e-14   6538.00 1 
  6401.32 5.0476e-14   6540.00 1 
  6403.27 5.0539e-14   6542.00 1 
  6405.23 5.0660e-14   6544.00 1 
  6407.19 5.0676e-14   6546.00 1 
  6409.15 5.0603e-14   6548.00 1 
  6411.10 5.0508e-14   6550.00 1 
  6413.06 5.0492e-14   6552.00 1 
  6415.02 5.0303e-14   6554.00 1 
  6416.98 5.0466e-14   6556.00 1 
  6418.93 5.0450e-14   6558.00 1 
  6420.89 5.0077e-14   6560.00 1 
  6422.85 4.9866e-14   6562.00 1 
  6424.81 4.9940e-14   6564.00 1 
  6426.76 5.0113e-14   6566.00 1 
  6428.72 4.9662e-14   6568.00 1 
  6430.68 4.9204e-14   6570.00 1 
  6432.64 4.9472e-14   6572.00 1 
  6434.59 5.0282e-14   6574.00 1 
  6436.55 5.1044e-14   6576.00 1 
  6438.51 5.1139e-14   6578.00 1 
  6440.47 5.0881e-14   6580.00 1 
  6442.42 5.0766e-14   6582.00 1 
  6444.38 5.0587e-14   6584.00 1 
  6446.34 5.0560e-14   6586.00 1 
  6448.30 5.0802e-14   6588.00 1 
  6450.26 5.1370e-14   6590.00 1 
  6452.21 5.1675e-14   6592.00 1 
  6454.17 5.1485e-14   6594.00 1 
  6456.13 5.1080e-14   6596.00 1 
  6458.09 5.0771e-14   6598.00 1 
  6460.04 5.0771e-14   6600.00 1 
  6462.00 5.0938e-14   6602.00 1 
  6463.96 5.1176e-14   6604.00 1 
  6465.92 5.1580e-14   6606.00 1 
  6467.87 5.1822e-14   6608.00 1 
  6469.83 5.1795e-14   6610.00 1 
  6471.79 5.1554e-14   6612.00 1 
  6473.75 5.1485e-14   6614.00 1 
  6475.70 5.1228e-14   6616.00 1 
  6477.66 5.0560e-14   6618.00 1 
  6479.62 4.9735e-14   6620.00 1 
  6481.58 4.9037e-14   6622.00 1 
  6483.53 4.9041e-14   6624.00 1 
  6485.49 4.9604e-14   6626.00 1 
  6487.45 5.0203e-14   6628.00 1 
  6489.41 5.0171e-14   6630.00 1 
  6491.36 4.9646e-14   6632.00 1 
  6493.32 4.9530e-14   6634.00 1 
  6495.28 4.9919e-14   6636.00 1 
  6497.24 5.0061e-14   6638.00 1 
  6499.19 4.9699e-14   6640.00 1 
  6501.15 4.9262e-14   6642.00 1 
  6503.11 4.9268e-14   6644.00 1 
  6505.07 4.9515e-14   6646.00 1 
  6507.03 4.9515e-14   6648.00 1 
  6508.98 4.9504e-14   6650.00 1 
  6510.94 5.0150e-14   6652.00 1 
  6512.90 5.1096e-14   6654.00 1 
  6514.86 5.1627e-14   6656.00 1 
  6516.81 5.1611e-14   6658.00 1 
  6518.77 5.1543e-14   6660.00 1 
  6520.73 5.1774e-14   6662.00 1 
  6522.69 5.1874e-14   6664.00 1 
  6524.64 5.1932e-14   6666.00 1 
  6526.60 5.1985e-14   6668.00 1 
  6528.56 5.1927e-14   6670.00 1 
  6530.52 5.1564e-14   6672.00 1 
  6532.47 5.1333e-14   6674.00 1 
  6534.43 5.1348e-14   6676.00 1 
  6536.39 5.1401e-14   6678.00 1 
  6538.35 5.1149e-14   6680.00 1 
  6540.30 5.0686e-14   6682.00 1 
  6542.26 5.0434e-14   6684.00 1 
  6544.22 5.0555e-14   6686.00 1 
  6546.18 5.1034e-14   6688.00 1 
  6548.13 5.1080e-14   6690.00 1 
  6550.09 5.0382e-14   6692.00 1 
  6552.05 4.9536e-14   6694.00 1 
  6554.01 4.9078e-14   6696.00 1 
  6555.97 4.8963e-14   6698.00 1 
  6557.92 4.8684e-14   6700.00 1 
  6559.88 4.8622e-14   6702.00 1 
  6561.84 4.8585e-14   6704.00 1 
  6563.80 4.8437e-14   6706.00 1 
  6565.75 4.8148e-14   6708.00 1 
  6567.71 4.8064e-14   6710.00 1 
  6569.67 4.8085e-14   6712.00 1 
  6571.63 4.8085e-14   6714.00 1 
  6573.58 4.8474e-14   6716.00 1 
  6575.54 4.9089e-14   6718.00 1 
  6577.50 4.9740e-14   6720.00 1 
  6579.46 5.0124e-14   6722.00 1 
  6581.41 5.0361e-14   6724.00 1 
  6583.37 5.0624e-14   6726.00 1 
  6585.33 5.0981e-14   6728.00 1 
  6587.29 5.1485e-14   6730.00 1 
  6589.24 5.1675e-14   6732.00 1 
  6591.20 5.1407e-14   6734.00 1 
  6593.16 5.0908e-14   6736.00 1 
  6595.12 5.0555e-14   6738.00 1 
  6597.07 5.0287e-14   6740.00 1 
  6599.03 5.0308e-14   6742.00 1 
  6600.99 5.0650e-14   6744.00 1 
  6602.95 5.0871e-14   6746.00 1 
  6604.90 5.0786e-14   6748.00 1 
  6606.86 5.0571e-14   6750.00 1 
  6608.82 5.0734e-14   6752.00 1 
  6610.78 5.0640e-14   6754.00 1 
  6612.74 5.0356e-14   6756.00 1 
  6614.69 5.0182e-14   6758.00 1 
  6616.65 5.0461e-14   6760.00 1 
  6618.61 5.0886e-14   6762.00 1 
  6620.57 5.1002e-14   6764.00 1 
  6622.52 5.0871e-14   6766.00 1 
  6624.48 5.0660e-14   6768.00 1 
  6626.44 5.0356e-14   6770.00 1 
  6628.40 5.0104e-14   6772.00 1 
  6630.35 4.9903e-14   6774.00 1 
  6632.31 4.9804e-14   6776.00 1 
  6634.27 4.9809e-14   6778.00 1 
  6636.23 4.9946e-14   6780.00 1 
  6638.18 5.0476e-14   6782.00 1 
  6640.14 5.1023e-14   6784.00 1 
  6642.10 5.1107e-14   6786.00 1 
  6644.06 5.0581e-14   6788.00 1 
  6646.01 4.9992e-14   6790.00 1 
  6647.97 4.9793e-14   6792.00 1 
  6649.93 4.9845e-14   6794.00 1 
  6651.89 4.9820e-14   6796.00 1 
  6653.84 4.9982e-14   6798.00 1 
  6655.80 5.0402e-14   6800.00 1 
  6657.76 5.0766e-14   6802.00 1 
  6659.72 5.0335e-14   6804.00 1 
  6661.67 4.9630e-14   6806.00 1 
  6663.63 4.9078e-14   6808.00 1 
  6665.59 4.8963e-14   6810.00 1 
  6667.55 4.9314e-14   6812.00 1 
  6669.51 4.9798e-14   6814.00 1 
  6671.46 5.0198e-14   6816.00 1 
  6673.42 5.0040e-14   6818.00 1 
  6675.38 4.9389e-14   6820.00 1 
  6677.34 4.8789e-14   6822.00 1 
  6679.29 4.8758e-14   6824.00 1 
  6681.25 4.9836e-14   6826.00 1 
  6683.21 5.1433e-14   6828.00 1 
  6685.17 5.2289e-14   6830.00 1 
  6694.09 4.8706e-14   6839.12 0 
  6709.52 4.8278e-14   6854.88 0 
  6724.99 4.6336e-14   6870.68 0 
  6740.49 4.8094e-14   6886.52 0 
  6756.03 4.6694e-14   6902.40 0 
  6771.60 4.8354e-14   6918.31 0 
  6787.21 4.9046e-14   6934.26 0 
  6802.86 4.7618e-14   6950.24 0 
  6818.54 4.8299e-14   6966.26 0 
  6834.26 4.8096e-14   6982.33 0 
  6850.01 4.7237e-14   6998.42 0 
  6865.80 4.5968e-14   7014.55 0 
  6881.63 4.7275e-14   7030.72 0 
  6897.50 4.7731e-14   7046.93 0 
  6913.40 4.7971e-14   7063.18 0 
  6929.33 4.7440e-14   7079.46 0 
  6945.31 4.9241e-14   7095.78 0 
  6961.32 4.8139e-14   7112.14 0 
  6977.36 4.9736e-14   7128.53 0 
  6993.45 5.0101e-14   7144.96 0 
  7009.57 4.8980e-14   7161.43 0 
  7025.73 4.9226e-14   7177.94 0 
  7041.93 5.0046e-14   7194.49 0 
  7058.16 4.9837e-14   7211.08 0 
  7074.43 4.5157e-14   7227.70 0 
  7090.74 4.6121e-14   7244.36 0 
  7107.09 4.6674e-14   7261.06 0 
  7123.47 4.6372e-14   7277.80 0 
  7139.89 4.4100e-14   7294.57 0 
  7156.35 4.3915e-14   7311.39 0 
  7172.85 4.3330e-14   7328.25 0 
  7189.38 4.3951e-14   7345.14 0 
  7205.96 4.4274e-14   7362.07 0 
  7222.57 4.5955e-14   7379.04 0 
  7239.21 4.6936e-14   7396.05 0 
  7255.90 4.8271e-14   7413.10 0 
  7272.63 4.7739e-14   7430.19 0 
  7289.39 4.6137e-14   7447.32 0 
  7306.20 4.8443e-14   7464.49 0 
  7323.04 4.8575e-14   7481.70 0 
  7339.92 4.9045e-14   7498.94 0 
  7356.84 4.9863e-14   7516.23 0 
  7373.80 5.0230e-14   7533.56 0 
  7390.80 5.0367e-14   7550.92 0 
  7407.84 5.0156e-14   7568.33 0 
  7424.92 4.9832e-14   7585.78 0 
  7442.03 5.2323e-14   7603.26 0 
  7459.19 5.2708e-14   7620.79 0 
  7476.38 5.2488e-14   7638.36 0 
  7493.62 5.2875e-14   7655.97 0 
  7510.89 5.2654e-14   7673.61 0 
  7528.20 5.3287e-14   7691.30 0 
  7545.56 5.3679e-14   7709.04 0 
  7562.95 5.2238e-14   7726.81 0 
  7580.39 5.1189e-14   7744.62 0 
  7597.87 5.0508e-14   7762.47 0 
  7615.38 5.0298e-14   7780.37 0 
  7632.93 5.0669e-14   7798.30 0 
  7650.53 4.9309e-14   7816.28 0 
  7668.17 4.8542e-14   7834.30 0 
  7685.84 4.9466e-14   7852.36 0 
  7703.56 4.8696e-14   7870.46 0 
  7721.32 4.6955e-14   7888.60 0 
  7739.12 4.7739e-14   7906.79 0 
  7756.96 4.4985e-14   7925.01 0 
  7774.84 4.8112e-14   7943.28 0 
  7792.76 4.7802e-14   7961.59 0 
  7810.73 4.8377e-14   7979.95 0 
  7828.74 4.9071e-14   7998.34 0 
  7846.78 4.8755e-14   8016.78 0 
  7864.87 4.9002e-14   8035.26 0 
  7883.00 4.8129e-14   8053.78 0 
  7901.17 4.7163e-14   8072.35 0 
  7919.39 4.6536e-14   8090.96 0 
  7937.64 4.7096e-14   8109.61 0 
  7955.94 4.6364e-14   8128.31 0 
  7974.28 4.8236e-14   8147.04 0 
  7992.66 4.8817e-14   8165.82 0 
  8011.09 4.7837e-14   8184.65 0 
  8029.56 4.9426e-14   8203.52 0 
  8048.06 5.0601e-14   8222.43 0 
  8066.62 5.0740e-14   8241.38 0 
  8085.21 4.8927e-14   8260.38 0 
  8103.85 4.7615e-14   8279.42 0 
  8122.53 4.8746e-14   8298.51 0 
  8141.26 4.8100e-14   8317.64 0 
  8160.02 4.8567e-14   8336.81 0 
  8178.83 4.8366e-14   8356.03 0 
  8197.69 4.8723e-14   8375.29 0 
  8216.59 4.9197e-14   8394.60 0 
  8235.53 4.4273e-14   8413.95 0 
  8254.52 5.1326e-14   8433.35 0 
  8273.54 5.1114e-14   8452.79 0 
  8292.61 4.9174e-14   8472.27 0 
  8311.73 4.7091e-14   8491.80 0 
  8330.89 4.7113e-14   8511.38 0 
  8350.10 4.8679e-14   8531.00 0 
  8369.34 4.8926e-14   8550.67 0 
  8388.64 4.8167e-14   8570.38 0 
  8407.98 4.8412e-14   8590.14 0 
  8427.36 4.8323e-14   8609.94 0 
  8446.79 4.5536e-14   8629.79 0 
  8466.26 4.5979e-14   8649.68 0 
  8485.77 4.7181e-14   8669.62 0 
  8505.33 3.7929e-14   8689.60 0 
  8524.94 4.4175e-14   8709.64 0 
  8544.59 4.3791e-14   8729.71 0 
  8564.29 4.5665e-14   8749.84 0 
  8584.04 4.6429e-14   8770.01 0 
  8603.82 4.6559e-14   8790.23 0 
  8623.66 4.6260e-14   8810.49 0 
  8643.54 4.7143e-14   8830.80 0 
  8663.46 4.5669e-14   8851.16 0 
  8683.43 4.3234e-14   8871.56 0 
  8703.45 4.6349e-14   8892.01 0 
  8723.52 4.7451e-14   8912.51 0 
  8743.62 4.6715e-14   8933.05 0 
  8763.78 4.8047e-14   8953.65 0 
  8783.98 4.6653e-14   8974.29 0 
  8804.23 4.7762e-14   8994.98 0 
  8824.53 4.8899e-14   9015.71 0 
  8844.87 4.7919e-14   9036.50 0 
  8865.26 4.8609e-14   9057.33 0 
  8885.70 4.4150e-14   9078.20 0 
  8906.18 4.5409e-14   9099.13 0 
  8926.71 4.5747e-14   9120.11 0 
  8947.29 4.6513e-14   9141.13 0 
  8967.91 4.6003e-14   9162.20 0 
  8988.59 4.4361e-14   9183.33 0 
  9009.31 4.2385e-14   9204.50 0 
  9030.08 4.4610e-14   9225.71 0 
  9050.90 4.8378e-14   9246.98 0 
  9071.76 4.5484e-14   9268.30 0 
  9092.67 4.6460e-14   9289.66 0 
  9113.63 4.5951e-14   9311.08 0 
  9134.64 4.7919e-14   9332.54 0 
  9155.70 4.4950e-14   9354.06 0 
  9176.80 4.4050e-14   9375.62 0 
  9197.96 4.6043e-14   9397.23 0 
  9219.16 4.3090e-14   9418.90 0 
  9240.41 4.2914e-14   9440.61 0 
  9261.72 4.5166e-14   9462.37 0 
  9283.07 4.6670e-14   9484.18 0 
  9304.46 4.2292e-14   9506.05 0 
  9325.92 4.7367e-14   9527.96 0 
  9347.42 4.7173e-14   9549.93 0 
  9368.96 4.6336e-14   9571.94 0 
  9390.56 4.7221e-14   9594.01 0 
  9412.21 4.6490e-14   9616.12 0 
  9433.90 4.7707e-14   9638.29 0 
  9455.65 4.7077e-14   9660.51 0 
  9477.45 4.8198e-14   9682.78 0 
  9499.30 4.8334e-14   9705.10 0 
  9521.19 4.7695e-14   9727.47 0 
  9543.15 4.6957e-14   9749.90 0 
  9565.14 4.7525e-14   9772.37 0 
  9587.19 4.8323e-14   9794.90 0 
  9609.30 4.7684e-14   9817.48 0 
  9631.45 4.8040e-14   9840.11 0 
  9653.65 4.7079e-14   9862.79 0 
  9675.90 4.7212e-14   9885.53 0 
  9698.21 4.7894e-14   9908.32 0 
  9720.56 4.6936e-14   9931.16 0 
  9742.97 4.6423e-14   9954.05 0 
  9765.43 4.6662e-14   9977.00 0 
  9787.94 4.5835e-14  10000.00 0 
  9810.51 4.7252e-14  10023.05 0 
  9833.12 4.6844e-14  10046.15 0 
  9855.79 4.7085e-14  10069.31 0 
  9878.52 4.6786e-14  10092.53 0 
  9901.29 4.6810e-14  10115.80 0 
  9924.11 4.6513e-14  10139.12 0 
  9946.98 4.6753e-14  10162.49 0 
  9969.91 4.6778e-14  10185.91 0 
  9992.89 4.6695e-14  10209.39 0 
 10015.94 4.6936e-14  10232.94 0 
 10085.36 4.6473e-14  10303.86 0 
 10131.91 4.7062e-14  10351.42 0 
 10178.68 4.6574e-14  10399.21 0 
 10225.66 4.6840e-14  10447.20 0 
 10272.86 4.6999e-14  10495.42 0 
 10296.54 4.6809e-14  10519.62 0 
 10487.98 4.5509e-14  10715.20 0 
 10707.58 4.3561e-14  10939.56 0 
 10906.65 4.2276e-14  11142.94 0 
 11109.42 4.0095e-14  11350.10 0 
 11289.93 3.9364e-14  11534.53 0 
 11499.84 3.9003e-14  11748.98 0 
 11686.69 3.7853e-14  11939.88 0 
 11903.96 3.6400e-14  12161.86 0 
 12097.38 3.5653e-14  12359.47 0 
 12293.95 3.5083e-14  12560.30 0 
 12493.71 3.4048e-14  12764.39 0 
 12696.72 3.3273e-14  12971.79 0 
 12903.02 3.2441e-14  13182.56 0 
 13112.68 3.1776e-14  13396.76 0 
 13295.09 3.0768e-14  13583.13 0 
 13511.12 3.0067e-14  13803.84 0 
 13699.08 2.9587e-14  13995.87 0 
 13889.65 2.8320e-14  14190.57 0 
 14115.34 2.6983e-14  14421.15 0 
 14311.71 2.6613e-14  14621.77 0 
 14510.80 2.6859e-14  14825.18 0 
 14712.67 2.5769e-14  15031.42 0 
 14883.04 2.6127e-14  15205.48 0 
 15090.09 2.6308e-14  15417.01 0 
 15299.99 2.6798e-14  15631.47 0 
 15512.84 2.6491e-14  15848.92 0 
 15692.47 2.6067e-14  16032.45 0 
 15910.78 2.5240e-14  16255.49 0 
 16095.02 2.5299e-14  16443.72 0 
 16281.40 2.5124e-14  16634.13 0 
 16507.90 2.4780e-14  16865.54 0 
 16699.03 2.4496e-14  17060.82 0 
 16892.40 2.4104e-14  17258.38 0 
 17088.01 2.3502e-14  17458.23 0 
 17285.89 2.2599e-14  17660.39 0 
 17486.03 2.1732e-14  17864.87 0 
 17688.52 2.0802e-14  18071.74 0 
 17893.35 1.9911e-14  18281.01 0 
 18100.55 1.8971e-14  18492.70 0 
 18310.13 1.8369e-14  18706.81 0 
 18479.55 1.7705e-14  18879.91 0 
 18693.54 1.6908e-14  19098.54 0 
 18909.99 1.6410e-14  19319.67 0 
 19084.97 1.6110e-14  19498.44 0 
 19305.97 1.5527e-14  19724.23 0 
 19484.59 1.4931e-14  19906.72 0 
 19710.22 1.4358e-14  20137.24 0 
 19892.60 1.3871e-14  20323.57 0 
 20122.95 1.3649e-14  20558.92 0 
 20309.13 1.3155e-14  20749.13 0 
 20497.06 1.2945e-14  20941.13 0 
 20686.70 1.2621e-14  21134.88 0 
 20878.12 1.2305e-14  21330.45 0 
 21119.89 1.2081e-14  21577.45 0 
 21315.29 1.1806e-14  21777.09 0 
 21512.53 1.1537e-14  21978.60 0 
 21711.59 1.1171e-14  22181.97 0 
 21912.47 1.0942e-14  22387.21 0 
 22115.24 1.0595e-14  22594.36 0 
 22319.85 1.0306e-14  22803.41 0 
 22474.58 1.0048e-14  22961.49 0 
 22682.52 9.7745e-15  23173.93 0 
 22892.41 8.7116e-15  23388.37 0 
 23104.24 8.6118e-15  23604.79 0 
 23318.00 7.4833e-15  23823.19 0 
 23479.65 7.0323e-15  23988.34 0 
 23696.89 7.1301e-15  24210.28 0 
 23916.16 6.5177e-15  24434.31 0 
 24081.93 6.2820e-15  24603.66 0 
 24304.77 6.1815e-15  24831.33 0 
 24473.23 5.7292e-15  25003.44 0 
 24699.69 5.6117e-15  25234.80 0 
 24928.24 4.6676e-15  25468.31 0 
 25101.02 4.5719e-15  25644.84 0 
 25275.03 4.5930e-15  25822.61 0 
 25508.88 4.5509e-15  26061.53 0 
 25685.71 4.6355e-15  26242.20 0 
 25923.36 4.5509e-15  26484.99 0 
 26103.07 4.5404e-15  26668.59 0 
 26283.99 4.4269e-15  26853.44 0 
 26527.21 4.3661e-15  27101.92 0 
 26711.07 4.2864e-15  27289.77 0 
 26896.24 4.2179e-15  27478.95 0 
 27082.66 4.1314e-15  27669.41 0 
 27270.41 4.0467e-15  27861.22 0 
 27522.72 3.9820e-15  28119.00 0 
 27713.52 3.8824e-15  28313.93 0 
 27905.60 3.8291e-15  28510.18 0 
 28099.05 3.7419e-15  28707.82 0 
 28293.81 3.6821e-15  28906.80 0 
 28489.95 3.5983e-15  29107.19 0 
 28687.42 3.5326e-15  29308.93 0 
 28886.26 3.4602e-15  29512.08 0 
 29086.50 3.3970e-15  29716.66 0 
 29288.11 3.3197e-15  29922.63 0 
 29491.14 3.2591e-15  30130.07 0 
 29695.55 3.1996e-15  30338.90 0 
 29901.41 3.1340e-15  30549.22 0 
 30108.66 3.0768e-15  30760.96 0 
 30317.38 3.0276e-15  30974.21 0 
 30527.51 2.9860e-15  31188.89 0 
 30668.41 2.9451e-15  31332.84 0 
 30881.01 2.9047e-15  31550.05 0 
 31095.06 2.8582e-15  31768.73 0 
 31310.61 2.8255e-15  31988.96 0 
 31527.63 2.8567e-15  32210.68 0 
 31673.18 2.8071e-15  32359.38 0 
 31892.72 2.7322e-15  32583.67 0 
 32113.77 2.6622e-15  32809.52 0 
 32336.39 2.5934e-15  33036.96 0 
 32485.64 2.5473e-15  33189.44 0 
 32710.84 2.4813e-15  33419.52 0 
 32937.56 2.4178e-15  33651.15 0 
 33089.58 2.3752e-15  33806.47 0 
 33318.97 2.3130e-15  34040.82 0 
 33472.75 2.2740e-15  34197.94 0 
 33704.79 2.2151e-15  34435.01 0 
 33938.41 2.1566e-15  34673.68 0 
 34095.05 2.1205e-15  34833.72 0 
 34331.41 2.0661e-15  35075.20 0 
 34489.86 2.0296e-15  35237.08 0 
 34728.95 1.9777e-15  35481.36 0 
 34889.24 1.9442e-15  35645.12 0 
 35131.07 1.8937e-15  35892.18 0 
 35293.25 1.8603e-15  36057.88 0 
 35537.87 1.8139e-15  36307.80 0 
 35701.90 1.7828e-15  36475.38 0 
 35866.72 1.7516e-15  36643.77 0 
 36115.32 1.7069e-15  36897.75 0 
 36282.00 1.6782e-15  37068.05 0 
 36533.52 1.6350e-15  37325.02 0 
 36702.14 1.6060e-15  37497.29 0 
 36871.58 1.5796e-15  37670.40 0 
 37127.14 1.5397e-15  37931.50 0 
 37298.50 1.5130e-15  38106.57 0 
 37470.69 1.4867e-15  38282.49 0 
 37730.40 1.4499e-15  38547.83 0 
 37904.55 1.4252e-15  38725.75 0 
 38079.53 1.4004e-15  38904.53 0 
 38343.47 1.3651e-15  39174.18 0 
 38520.44 1.3424e-15  39354.99 0 
 38698.27 1.3195e-15  39536.67 0 
 38876.88 1.2965e-15  39719.15 0 
 39056.32 1.2748e-15  39902.48 0 
 39327.07 1.2431e-15  40179.09 0 
 39508.58 1.2219e-15  40364.54 0 
 39690.93 1.2006e-15  40550.84 0 
 39874.17 1.1808e-15  40738.04 0 
 40058.21 1.1613e-15  40926.07 0 
 40335.85 1.1318e-15  41209.73 0 
 40522.07 1.1121e-15  41399.98 0 
 40709.10 1.0941e-15  41591.06 0 
 40896.99 1.0759e-15  41783.02 0 
 41085.79 1.0577e-15  41975.91 0 
 41275.42 1.0394e-15  42169.65 0 
 41465.92 1.0223e-15  42364.28 0 
 41657.35 1.0055e-15  42559.86 0 
 41946.09 9.8020e-16  42854.85 0 
 42139.69 9.6323e-16  43052.64 0 
 42334.23 9.4762e-16  43251.40 0 
 42529.62 9.3205e-16  43451.02 0 
 42725.91 9.1641e-16  43651.57 0 
 42923.16 9.0070e-16  43853.09 0 
 43121.27 8.8581e-16  44055.49 0 
 43320.29 8.7139e-16  44258.83 0 
 43520.24 8.5691e-16  44463.10 0 
 43721.15 8.4236e-16  44668.37 0 
 43922.94 8.2817e-16  44874.54 0 
 44125.67 8.1482e-16  45081.65 0 
 44329.38 8.0140e-16  45289.77 0 
 44533.98 7.8792e-16  45498.80 0 
 44739.52 7.7441e-16  45708.80 0 
 44946.06 7.6204e-16  45919.82 0 
 45049.67 7.5583e-16  46025.67 0 
 45257.59 7.4337e-16  46238.10 0 
 45466.48 7.3086e-16  46451.51 0 
 45676.37 7.1854e-16  46665.95 0 
 45887.19 7.0704e-16  46881.34 0 
 46098.98 6.9550e-16  47097.72 0 
 46311.80 6.8390e-16  47315.15 0 
 46525.55 6.7225e-16  47533.53 0 
 46740.29 6.6152e-16  47752.92 0 
 46848.03 6.5617e-16  47862.99 0 
 47064.30 6.4544e-16  48083.95 0 
 47281.53 6.3467e-16  48305.88 0 
 47499.75 6.2396e-16  48528.84 0 
 47719.04 6.1406e-16  48752.87 0 
 47939.28 6.0412e-16  48977.89 0 
 48049.79 5.9913e-16  49090.79 0 
 48271.56 5.8912e-16  49317.36 0 
 48494.41 5.7935e-16  49545.04 0 
 48718.23 5.7015e-16  49773.71 0 
 48943.09 5.6091e-16  50003.44 0 
 49055.91 5.5627e-16  50118.70 0 
 49282.38 5.4696e-16  50350.08 0 
 49509.83 5.3805e-16  50582.46 0 
 49738.34 5.2950e-16  50815.93 0 
 49853.00 5.2521e-16  50933.06 0 
 50083.14 5.1660e-16  51168.20 0 
 50314.30 5.0795e-16  51404.36 0 
 50546.53 4.9982e-16  51641.62 0 
 50663.09 4.9584e-16  51760.71 0 
 50779.88 4.9186e-16  51880.02 0 
 50896.93 4.8787e-16  51999.61 0 
 51014.25 4.8387e-16  52119.47 0 
 51131.84 4.7986e-16  52239.61 0 
 51249.70 4.7585e-16  52360.03 0 
 51367.83 4.7182e-16  52480.72 0 
 51486.30 4.6809e-16  52601.75 0 
 51604.98 4.6440e-16  52723.00 0 
 51723.93 4.6071e-16  52844.53 0 
 51843.16 4.5701e-16  52966.34 0 
 51962.66 4.5330e-16  53088.43 0 
 52082.44 4.4958e-16  53210.80 0 
 52202.55 4.4585e-16  53333.52 0 
 52322.88 4.4211e-16  53456.46 0 
 52443.49 4.3845e-16  53579.68 0 
 52564.38 4.3503e-16  53703.18 0 
 52685.54 4.3160e-16  53826.97 0 
 52806.98 4.2816e-16  53951.05 0 
 52928.71 4.2472e-16  54075.41 0 
 53050.77 4.2127e-16  54200.11 0 
 53173.06 4.1781e-16  54325.05 0 
 53295.62 4.1434e-16  54450.27 0 
 53418.47 4.1086e-16  54575.79 0 
 53541.61 4.0758e-16  54701.59 0 
 53665.02 4.0440e-16  54827.68 0 
 53788.73 4.0121e-16  54954.06 0 
 53912.77 3.9801e-16  55080.79 0 
 54037.05 3.9480e-16  55207.76 0 
 54161.60 3.9159e-16  55335.02 0 
 54286.45 3.8837e-16  55462.57 0 
 54411.58 3.8515e-16  55590.41 0 
 54537.01 3.8193e-16  55718.55 0 
 54662.78 3.7897e-16  55847.05 0 
 54788.78 3.7601e-16  55975.78 0 
 54915.07 3.7304e-16  56104.81 0 
 55041.66 3.7006e-16  56234.13 0 
 55168.53 3.6708e-16  56363.76 0 
 55295.70 3.6409e-16  56493.68 0 
 55423.16 3.6110e-16  56623.90 0 
 55550.97 3.5809e-16  56754.48 0 
 55679.02 3.5520e-16  56885.31 0 
 55807.37 3.5245e-16  57016.43 0 
 55936.01 3.4970e-16  57147.86 0 
 56064.94 3.4693e-16  57279.59 0 
 56194.17 3.4416e-16  57411.62 0 
 56323.77 3.4139e-16  57544.02 0 
 56453.60 3.3860e-16  57676.67 0 
 56583.73 3.3582e-16  57809.62 0 
 56714.16 3.3302e-16  57942.87 0 
 56844.89 3.3043e-16  58076.43 0 
 56975.92 3.2787e-16  58210.30 0 
 57107.26 3.2530e-16  58344.48 0 
 57238.95 3.2273e-16  58479.04 0 
 57370.89 3.2015e-16  58613.83 0 
 57503.14 3.1756e-16  58748.94 0 
 57635.69 3.1497e-16  58884.36 0 
 57768.54 3.1238e-16  59020.09 0 
 57901.70 3.0983e-16  59156.14 0 
 58035.17 3.0745e-16  59292.50 0 
 58169.01 3.0507e-16  59429.24 0 
 58303.09 3.0268e-16  59566.23 0 
 58437.48 3.0028e-16  59703.53 0 
 58572.19 2.9788e-16  59841.15 0 
 58707.20 2.9547e-16  59979.09 0 
 58842.52 2.9306e-16  60117.35 0 
 58978.23 2.9064e-16  60255.99 0 
 59114.17 2.8836e-16  60394.88 0 
 59250.44 2.8614e-16  60534.10 0 
 59387.01 2.8392e-16  60673.63 0 
 59523.90 2.8169e-16  60813.49 0 
 59661.11 2.7946e-16  60953.67 0 
 59798.63 2.7722e-16  61094.17 0 
 59936.54 2.7498e-16  61235.06 0 
 60074.70 2.7273e-16  61376.21 0 
 60213.17 2.7049e-16  61517.69 0 
 60351.97 2.6843e-16  61659.50 0 
 60491.09 2.6637e-16  61801.62 0 
 60630.52 2.6430e-16  61944.08 0 
 60770.34 2.6222e-16  62086.93 0 
 60910.43 2.6014e-16  62230.05 0 
 61050.83 2.5806e-16  62373.50 0 
 61191.55 2.5597e-16  62517.27 0 
 61332.60 2.5388e-16  62661.38 0 
 61473.98 2.5186e-16  62805.82 0 
 61615.68 2.4994e-16  62950.59 0 
 61757.78 2.4802e-16  63095.76 0 
 61900.14 2.4609e-16  63241.20 0 
 62042.82 2.4416e-16  63386.98 0 
 62185.83 2.4222e-16  63533.09 0 
 62329.18 2.4028e-16  63679.54 0 
 62472.85 2.3833e-16  63826.32 0 
 62616.92 2.3638e-16  63973.52 0 
 62761.26 2.3457e-16  64120.98 0 
 62905.93 2.3278e-16  64268.79 0 
 63050.93 2.3099e-16  64416.93 0 
 63196.27 2.2919e-16  64565.41 0 
 63341.94 2.2739e-16  64714.24 0 
 63487.95 2.2558e-16  64863.41 0 
 63634.36 2.2377e-16  65013.00 0 
 63781.04 2.2196e-16  65162.86 0 
 63928.06 2.2018e-16  65313.06 0 
 64075.42 2.1852e-16  65463.61 0 
 64223.12 2.1685e-16  65614.52 0 
 64371.16 2.1518e-16  65765.76 0 
 64519.54 2.1350e-16  65917.35 0 
 64668.33 2.1182e-16  66069.37 0 
 64817.40 2.1014e-16  66221.66 0 
 64966.81 2.0845e-16  66374.31 0 
 65116.56 2.0676e-16  66527.31 0 
 65266.65 2.0516e-16  66680.66 0 
 65417.10 2.0361e-16  66834.36 0 
 65567.96 2.0205e-16  66988.49 0 
 65719.10 2.0050e-16  67142.91 0 
 65870.59 1.9893e-16  67297.68 0 
 66022.43 1.9737e-16  67452.80 0 
 66174.62 1.9580e-16  67608.29 0 
 66327.15 1.9422e-16  67764.12 0 
 66480.04 1.9265e-16  67920.33 0 
 66633.35 1.9121e-16  68076.96 0 
 66786.95 1.8976e-16  68233.89 0 
 66940.90 1.8831e-16  68391.17 0 
 67095.20 1.8686e-16  68548.82 0 
 67249.86 1.8540e-16  68706.83 0 
 67404.88 1.8394e-16  68865.20 0 
 67560.32 1.8248e-16  69024.02 0 
 67716.06 1.8101e-16  69183.12 0 
 67872.14 1.7960e-16  69342.59 0 
 68028.59 1.7825e-16  69502.43 0 
 68185.40 1.7690e-16  69662.64 0 
 68342.58 1.7555e-16  69823.22 0 
 68500.11 1.7419e-16  69984.16 0 
 68658.09 1.7283e-16  70145.56 0 
 68816.34 1.7147e-16  70307.25 0 
 68974.97 1.7010e-16  70469.31 0 
 69133.96 1.6873e-16  70631.75 0 
 69293.32 1.6746e-16  70794.56 0 
 69453.05 1.6621e-16  70957.75 0 
 69613.22 1.6495e-16  71121.39 0 
 69773.68 1.6368e-16  71285.33 0 
 69934.52 1.6242e-16  71449.65 0 
 70095.72 1.6115e-16  71614.34 0 
 70257.30 1.5988e-16  71779.42 0 
 70419.24 1.5861e-16  71944.88 0 
 70581.57 1.5736e-16  72110.72 0 
 70744.34 1.5619e-16  72277.02 0 
 70907.41 1.5501e-16  72443.62 0 
 71070.86 1.5384e-16  72610.61 0 
 71234.68 1.5266e-16  72777.98 0 
 71398.88 1.5148e-16  72945.73 0 
 71563.46 1.5030e-16  73113.88 0 
 71728.42 1.4911e-16  73282.41 0 
 71893.83 1.4792e-16  73451.41 0 
 72059.56 1.4679e-16  73620.73 0 
 72225.66 1.4570e-16  73790.43 0 
 72392.15 1.4461e-16  73960.52 0 
 72559.02 1.4351e-16  74131.01 0 
 72726.27 1.4241e-16  74301.88 0 
 72893.99 1.4131e-16  74473.23 0 
 73062.01 1.4020e-16  74644.90 0 
 73230.42 1.3910e-16  74816.96 0 
 73399.23 1.3799e-16  74989.42 0 
 73568.41 1.3697e-16  75162.27 0 
 73738.00 1.3595e-16  75335.53 0 
 73907.97 1.3493e-16  75509.19 0 
 74078.41 1.3391e-16  75683.32 0 
 74249.17 1.3288e-16  75857.78 0 
 74420.32 1.3185e-16  76032.63 0 
 74591.87 1.3082e-16  76207.90 0 
 74763.80 1.2979e-16  76383.56 0 
 74936.14 1.2879e-16  76559.63 0 
 75108.95 1.2784e-16  76736.19 0 
 75282.08 1.2689e-16  76913.07 0 
 75455.61 1.2593e-16  77090.36 0 
 75629.55 1.2498e-16  77268.06 0 
 75803.88 1.2402e-16  77446.17 0 
 75978.61 1.2306e-16  77624.69 0 
 76153.75 1.2209e-16  77803.62 0 
 76329.37 1.2113e-16  77983.05 0 
 76505.32 1.2023e-16  78162.80 0 
 76681.67 1.1934e-16  78342.98 0 
 76858.42 1.1845e-16  78523.56 0 
 77035.59 1.1756e-16  78704.56 0 
 77213.16 1.1667e-16  78885.98 0 
 77391.14 1.1577e-16  79067.82 0 
 77569.62 1.1487e-16  79250.16 0 
 77748.42 1.1398e-16  79432.84 0 
 77927.64 1.1309e-16  79615.94 0 
 78107.27 1.1227e-16  79799.46 0 
 78287.31 1.1144e-16  79983.41 0 
 78467.77 1.1061e-16  80167.77 0 
 78648.72 1.0977e-16  80352.65 0 
 78830.01 1.0894e-16  80537.87 0 
 79011.73 1.0810e-16  80723.52 0 
 79193.85 1.0726e-16  80909.59 0 
 79376.40 1.0642e-16  81096.09 0 
 79559.37 1.0563e-16  81283.02 0 
 79742.76 1.0485e-16  81470.38 0 
 79926.66 1.0408e-16  81658.27 0 
 80110.90 1.0330e-16  81846.50 0 
 80295.56 1.0252e-16  82035.16 0 
 80480.64 1.0174e-16  82224.26 0 
 80666.16 1.0096e-16  82413.79 0 
 80852.10 1.0018e-16  82603.76 0 
 81038.56 9.9396e-17  82794.26 0 
 81225.35 9.8675e-17  82985.10 0 
 81412.59 9.7953e-17  83176.39 0 
 81600.25 9.7229e-17  83368.12 0 
 81788.34 9.6503e-17  83560.29 0 
 81976.87 9.5776e-17  83752.90 0 
 82165.84 9.5047e-17  83945.96 0 
 82355.33 9.4316e-17  84139.55 0 
 82545.16 9.3584e-17  84333.50 0 
 82735.43 9.2877e-17  84527.89 0 
 82926.14 9.2204e-17  84722.73 0 
 83117.30 9.1528e-17  84918.03 0 
 83308.89 9.0852e-17  85113.77 0 
 83501.01 9.0173e-17  85310.05 0 
 83693.48 8.9493e-17  85506.70 0 
 83886.41 8.8812e-17  85703.80 0 
 84079.76 8.8129e-17  85901.35 0 
 84273.58 8.7444e-17  86099.37 0 
 84467.83 8.6807e-17  86297.83 0 
 84662.54 8.6177e-17  86496.75 0 
 84857.78 8.5545e-17  86696.23 0 
 85053.39 8.4912e-17  86896.07 0 
 85249.44 8.4278e-17  87096.37 0 
 85445.95 8.3642e-17  87297.13 0 
 85642.91 8.3005e-17  87498.36 0 
 85840.32 8.2367e-17  87700.05 0 
 86038.19 8.1740e-17  87902.20 0 
 86236.61 8.1152e-17  88104.92 0 
 86435.39 8.0562e-17  88308.01 0 
 86634.63 7.9972e-17  88511.57 0 
 86834.33 7.9380e-17  88715.59 0 
 87034.48 7.8787e-17  88920.09 0 
 87235.11 7.8193e-17  89125.05 0 
 87436.29 7.7596e-17  89330.59 0 
 87637.83 7.6999e-17  89536.51 0 
 87839.84 7.6433e-17  89742.89 0 
 88042.32 7.5883e-17  89949.76 0 
 88245.27 7.5332e-17  90157.10 0 
 88448.67 7.4780e-17  90364.91 0 
 88652.55 7.4226e-17  90573.21 0 
 88857.01 7.3671e-17  90782.09 0 
 89061.83 7.3115e-17  90991.35 0 
 89267.12 7.2557e-17  91201.09 0 
 89472.89 7.2000e-17  91411.32 0 
 89679.13 7.1487e-17  91622.02 0 
 89885.84 7.0973e-17  91833.22 0 
 90093.14 7.0457e-17  92045.01 0 
 90300.80 6.9940e-17  92257.17 0 
 90508.96 6.9422e-17  92469.84 0 
 90717.59 6.8903e-17  92682.98 0 
 90926.70 6.8383e-17  92896.62 0 
 91136.29 6.7861e-17  93110.76 0 
 91346.36 6.7358e-17  93325.38 0 
 91557.03 6.6877e-17  93540.61 0 
 91768.07 6.6396e-17  93756.23 0 
 91979.61 6.5913e-17  93972.34 0 
 92191.62 6.5430e-17  94188.95 0 
 92404.13 6.4945e-17  94406.07 0 
 92617.13 6.4459e-17  94623.68 0 
 92830.72 6.3972e-17  94841.90 0 
 93044.70 6.3484e-17  95060.52 0 
 93259.17 6.3029e-17  95279.63 0 
 93474.15 6.2580e-17  95499.27 0 
 93689.61 6.2129e-17  95719.40 0 
 93905.57 6.1677e-17  95940.04 0 
 94122.03 6.1225e-17  96161.19 0 
 94339.09 6.0771e-17  96382.95 0 
 94556.55 6.0316e-17  96605.12 0 
 94774.51 5.9860e-17  96827.80 0 
 94992.97 5.9413e-17  97050.99 0 
 95211.94 5.8993e-17  97274.70 0 
 95431.41 5.8572e-17  97498.93 0 
 95651.38 5.8150e-17  97723.67 0 
 95871.97 5.7727e-17  97949.04 0 
 96092.97 5.7303e-17  98174.82 0 
 96314.46 5.6878e-17  98401.12 0 
 96536.47 5.6453e-17  98627.94 0 
 96759.00 5.6026e-17  98855.28 0 
 96982.03 5.5621e-17  99083.15 0 
 97205.69 5.5227e-17  99311.66 0 
 97429.76 5.4833e-17  99540.58 0 
 97654.34 5.4438e-17  99770.02 0 
 97879.44 5.4042e-17 100000.00 0 
 98105.06 5.3645e-17 100230.51 0 
 98331.20 5.3248e-17 100461.55 0 
 98557.86 5.2849e-17 100693.12 0 
 98785.16 5.2451e-17 100925.34 0 
 99012.86 5.2083e-17 101157.97 0 
 99241.09 5.1715e-17 101391.15 0 
 99469.85 5.1346e-17 101624.86 0 
 99699.14 5.0976e-17 101859.12 0 
 99928.95 5.0605e-17 102093.91 0 
100159.40 5.0233e-17 102329.35 0 
100390.27 4.9860e-17 102565.23 0 
100621.68 4.9487e-17 102801.65 0 
100853.62 4.9126e-17 103038.62 0 
101086.09 4.8782e-17 103276.12 0 
101319.11 4.8437e-17 103514.19 0 
101552.65 4.8091e-17 103752.79 0 
101786.85 4.7744e-17 103992.06 0 
102021.48 4.7397e-17 104231.77 0 
102256.64 4.7049e-17 104472.03 0 
102492.35 4.6700e-17 104712.85 0 
102728.60 4.6350e-17 104954.22 0 
102965.40 4.6023e-17 105196.15 0 
103202.75 4.5701e-17 105438.63 0 
103440.75 4.5377e-17 105681.79 0 
103679.19 4.5053e-17 105925.40 0 
103918.18 4.4729e-17 106169.56 0 
104157.71 4.4403e-17 106414.29 0 
104397.81 4.4077e-17 106659.59 0 
104638.45 4.3750e-17 106905.44 0 
104879.76 4.3428e-17 107151.98 0 
105121.52 4.3127e-17 107398.98 0 
105363.83 4.2824e-17 107646.54 0 
105606.70 4.2521e-17 107894.67 0 
105850.13 4.2218e-17 108143.38 0 
106094.13 4.1913e-17 108392.66 0 
106338.68 4.1608e-17 108642.51 0 
106583.91 4.1302e-17 108893.05 0 
106829.60 4.0996e-17 109144.06 0 
107075.85 4.0705e-17 109395.65 0 
107322.67 4.0422e-17 109647.81 0 
107570.05 4.0138e-17 109900.55 0 
107818.01 3.9854e-17 110153.88 0 
108066.66 3.9570e-17 110407.92 0 
108315.75 3.9284e-17 110662.41 0 
108565.43 3.8998e-17 110917.50 0 
108815.68 3.8711e-17 111173.17 0 
109066.51 3.8425e-17 111429.44 0 
109317.92 3.8161e-17 111686.29 0 
109569.90 3.7895e-17 111943.73 0 
109822.59 3.7630e-17 112201.90 0 
110075.74 3.7363e-17 112460.53 0 
110329.47 3.7096e-17 112719.76 0 
110583.79 3.6829e-17 112979.59 0 
110838.69 3.6561e-17 113240.01 0 
111094.18 3.6292e-17 113501.04 0 
111350.38 3.6032e-17 113762.79 0 
111607.06 3.5784e-17 114025.02 0 
111864.32 3.5535e-17 114287.86 0 
112122.17 3.5286e-17 114551.30 0 
112380.62 3.5036e-17 114815.34 0 
112639.67 3.4786e-17 115080.01 0 
112899.31 3.4535e-17 115345.27 0 
113159.68 3.4283e-17 115611.28 0 
113420.52 3.4031e-17 115877.77 0 
113681.96 3.3796e-17 116144.88 0 
113944.00 3.3563e-17 116412.60 0 
114206.65 3.3330e-17 116680.94 0 
114469.91 3.3096e-17 116949.90 0 
114733.77 3.2862e-17 117219.48 0 
114998.37 3.2627e-17 117489.80 0 
115263.44 3.2392e-17 117760.62 0 
115529.13 3.2156e-17 118032.07 0 
115795.43 3.1924e-17 118304.14 0 
116062.35 3.1706e-17 118576.84 0 
116329.88 3.1488e-17 118850.17 0 
116598.16 3.1269e-17 119124.26 0 
116866.93 3.1050e-17 119398.85 0 
117136.31 3.0830e-17 119674.07 0 
117406.32 3.0609e-17 119949.93 0 
117676.95 3.0389e-17 120226.42 0 
117948.21 3.0167e-17 120503.55 0 
118220.08 2.9957e-17 120781.32 0 
118492.72 2.9752e-17 121059.87 0 
118765.85 2.9548e-17 121338.91 0 
119039.62 2.9342e-17 121618.61 0 
119314.01 2.9136e-17 121898.95 0 
119589.04 2.8930e-17 122179.94 0 
119864.70 2.8723e-17 122461.57 0 
120141.13 2.8516e-17 122743.98 0 
120418.06 2.8309e-17 123026.92 0 
120695.64 2.8118e-17 123310.51 0 
120973.84 2.7926e-17 123594.74 0 
121252.70 2.7734e-17 123879.64 0 
121532.20 2.7541e-17 124165.20 0 
121812.33 2.7348e-17 124451.40 0 
122093.26 2.7154e-17 124738.41 0 
122374.69 2.6960e-17 125025.94 0 
122656.77 2.6765e-17 125314.13 0 
122939.51 2.6577e-17 125602.99 0 
123222.89 2.6398e-17 125892.52 0 
123506.93 2.6218e-17 126182.70 0 
123791.75 2.6037e-17 126473.70 0 
124077.10 2.5856e-17 126765.23 0 
124363.11 2.5675e-17 127057.44 0 
124649.78 2.5493e-17 127350.31 0 
124937.10 2.5311e-17 127643.87 0 
125225.09 2.5128e-17 127938.09 0 
125513.74 2.4957e-17 128233.00 0 
125803.20 2.4789e-17 128528.73 0 
126093.18 2.4619e-17 128824.99 0 
126383.84 2.4450e-17 129121.95 0 
126675.16 2.4280e-17 129419.58 0 
126967.16 2.4110e-17 129717.90 0 
127259.83 2.3939e-17 130016.91 0 
127553.17 2.3768e-17 130316.61 0 
127847.33 2.3600e-17 130617.14 0 
128142.03 2.3442e-17 130918.23 0 
128437.40 2.3283e-17 131220.00 0 
128733.46 2.3124e-17 131522.47 0 
129030.20 2.2965e-17 131825.64 0 
129327.62 2.2806e-17 132129.50 0 
129625.87 2.2646e-17 132434.22 0 
129924.67 2.2485e-17 132739.48 0 
130224.16 2.2325e-17 133045.47 0 
130524.33 2.2172e-17 133352.14 0 
130825.20 2.2023e-17 133659.53 0 
131126.76 2.1874e-17 133967.62 0 
131429.01 2.1725e-17 134276.42 0 
131732.12 2.1575e-17 134586.09 0 
132035.77 2.1426e-17 134896.33 0 
132340.12 2.1275e-17 135207.27 0 
132645.18 2.1125e-17 135518.94 0 
132950.93 2.0974e-17 135831.31 0 
133257.39 2.0835e-17 136144.41 0 
133564.71 2.0695e-17 136458.39 0 
133872.59 2.0555e-17 136772.94 0 
134181.17 2.0415e-17 137088.20 0 
134490.47 2.0275e-17 137404.20 0 
134800.47 2.0134e-17 137720.92 0 
135111.21 1.9993e-17 138038.39 0 
135422.65 1.9851e-17 138356.58 0 
135734.94 1.9714e-17 138675.64 0 
136047.82 1.9583e-17 138995.30 0 
136361.43 1.9452e-17 139315.70 0 
136675.75 1.9321e-17 139636.83 0 
136990.80 1.9189e-17 139958.70 0 
137306.57 1.9057e-17 140281.31 0 
137623.07 1.8925e-17 140604.67 0 
137940.46 1.8792e-17 140928.94 0 
138258.41 1.8659e-17 141253.78 0 
138577.12 1.8534e-17 141579.39 0 
138896.54 1.8411e-17 141905.73 0 
139216.71 1.8288e-17 142232.84 0 
139537.62 1.8165e-17 142560.70 0 
139859.41 1.8041e-17 142889.47 0 
140181.79 1.7917e-17 143218.83 0 
140504.93 1.7792e-17 143548.97 0 
140828.80 1.7667e-17 143879.86 0 
141153.43 1.7545e-17 144211.52 0 
141478.78 1.7429e-17 144543.92 0 
141804.91 1.7314e-17 144877.11 0 
142131.93 1.7198e-17 145211.22 0 
142459.55 1.7082e-17 145545.94 0 
142787.94 1.6965e-17 145881.44 0 
143117.07 1.6848e-17 146217.70 0 
143446.97 1.6731e-17 146554.75 0 
143777.62 1.6614e-17 146892.56 0 
144109.20 1.6502e-17 147231.33 0 
144441.38 1.6394e-17 147570.70 0 
144774.32 1.6285e-17 147910.86 0 
145108.05 1.6176e-17 148251.81 0 
145442.53 1.6067e-17 148593.55 0 
145777.79 1.5957e-17 148936.06 0 
146113.82 1.5848e-17 149279.38 0 
146450.77 1.5738e-17 149623.62 0 
146788.36 1.5628e-17 149968.53 0 
147126.72 1.5526e-17 150314.22 0 
147465.86 1.5424e-17 150660.70 0 
147805.77 1.5321e-17 151007.98 0 
148146.47 1.5219e-17 151356.06 0 
148488.13 1.5116e-17 151705.12 0 
148830.40 1.5013e-17 152054.81 0 
149173.47 1.4910e-17 152405.31 0 
149517.32 1.4806e-17 152756.61 0 
149861.96 1.4706e-17 153108.72 0 
150207.41 1.4610e-17 153461.66 0 
150553.65 1.4514e-17 153815.39 0 
150900.84 1.4418e-17 154170.11 0 
151248.68 1.4322e-17 154525.48 0 
151597.33 1.4225e-17 154881.69 0 
151946.78 1.4128e-17 155238.70 0 
152297.02 1.4031e-17 155596.53 0 
152648.07 1.3934e-17 155955.19 0 
152999.94 1.3842e-17 156314.69 0 
153352.78 1.3752e-17 156675.17 0 
153706.27 1.3662e-17 157036.31 0 
154060.57 1.3571e-17 157398.30 0 
154415.69 1.3480e-17 157761.11 0 
154771.64 1.3390e-17 158124.77 0 
155128.39 1.3298e-17 158489.25 0 
155486.14 1.3207e-17 158854.75 0 
155844.55 1.3117e-17 159220.92 0 
156203.78 1.3032e-17 159587.94 0 
156563.84 1.2947e-17 159955.80 0 
156924.74 1.2862e-17 160324.52 0 
157286.45 1.2777e-17 160694.06 0 
157649.02 1.2692e-17 161064.48 0 
158012.58 1.2606e-17 161435.92 0 
158376.81 1.2520e-17 161808.05 0 
158741.89 1.2434e-17 162181.03 0 
159107.79 1.2352e-17 162554.86 0 
159474.55 1.2273e-17 162929.56 0 
159842.14 1.2193e-17 163305.12 0 
160210.77 1.2113e-17 163681.73 0 
160580.06 1.2032e-17 164059.03 0 
160950.22 1.1952e-17 164437.20 0 
161321.21 1.1871e-17 164816.23 0 
161693.08 1.1791e-17 165196.16 0 
162065.78 1.1710e-17 165576.94 0 
162439.36 1.1635e-17 165958.61 0 
162813.98 1.1560e-17 166341.34 0 
163189.27 1.1485e-17 166724.77 0 
163565.43 1.1409e-17 167109.08 0 
163942.47 1.1334e-17 167494.28 0 
164320.36 1.1258e-17 167880.36 0 
164699.14 1.1182e-17 168267.34 0 
165078.96 1.1106e-17 168655.39 0 
165459.48 1.1032e-17 169044.16 0 
165840.87 1.0962e-17 169433.81 0 
166223.15 1.0891e-17 169824.38 0 
166606.30 1.0820e-17 170215.83 0 
166990.34 1.0749e-17 170608.19 0 
167375.27 1.0678e-17 171001.45 0 
167761.26 1.0607e-17 171395.81 0 
168147.96 1.0535e-17 171790.89 0 
168535.55 1.0464e-17 172186.88 0 
168924.04 1.0397e-17 172583.78 0 
169313.43 1.0330e-17 172981.61 0 
169703.71 1.0264e-17 173380.34 0 
170094.88 1.0197e-17 173779.98 0 
170487.15 1.0130e-17 174180.75 0 
170880.13 1.0063e-17 174582.25 0 
171274.04 9.9957e-18 174984.69 0 
171668.83 9.9284e-18 175388.03 0 
172064.53 9.8621e-18 175792.31 0 
172461.16 9.7997e-18 176197.53 0 
172858.89 9.7371e-18 176603.88 0 
173257.33 9.6744e-18 177010.95 0 
173656.71 9.6115e-18 177418.98 0 
174056.99 9.5485e-18 177827.94 0 
174458.21 9.4853e-18 178237.84 0 
174860.35 9.4220e-18 178648.70 0 
175263.42 9.3586e-18 179060.50 0 
175667.60 9.2981e-18 179473.44 0 
176072.53 9.2392e-18 179887.14 0 
176478.39 9.1803e-18 180301.80 0 
176885.19 9.1212e-18 180717.41 0 
177292.92 9.0619e-18 181133.97 0 
177701.59 9.0026e-18 181551.50 0 
178111.40 8.9430e-18 181970.19 0 
178521.96 8.8834e-18 182389.64 0 
178933.47 8.8237e-18 182810.06 0 
179345.92 8.7684e-18 183231.45 0 
179759.33 8.7130e-18 183653.81 0 
180173.68 8.6574e-18 184077.14 0 
180588.99 8.6017e-18 184501.45 0 
181005.47 8.5458e-18 184926.95 0 
181422.70 8.4898e-18 185353.22 0 
181840.89 8.4337e-18 185780.47 0 
182260.04 8.3775e-18 186208.70 0 
182680.17 8.3230e-18 186637.94 0 
183101.25 8.2709e-18 187068.14 0 
183523.31 8.2186e-18 187499.34 0 
183946.55 8.1662e-18 187931.75 0 
184370.56 8.1137e-18 188364.95 0 
184795.55 8.0610e-18 188799.14 0 
185221.52 8.0083e-18 189234.34 0 
185648.46 7.9554e-18 189670.53 0 
186076.40 7.9024e-18 190107.75 0 
186505.51 7.8526e-18 190546.16 0 
186935.43 7.8034e-18 190985.39 0 
187366.33 7.7541e-18 191425.62 0 
187798.23 7.7047e-18 191866.88 0 
188231.11 7.6552e-18 192309.14 0 
188664.99 7.6055e-18 192752.42 0 
189099.89 7.5558e-18 193196.73 0 
189535.98 7.5059e-18 193642.28 0 
189972.88 7.4568e-18 194088.64 0 
190410.78 7.4105e-18 194536.03 0 
190849.68 7.3641e-18 194984.44 0 
191289.60 7.3176e-18 195433.89 0 
191730.55 7.2710e-18 195884.39 0 
192172.70 7.2243e-18 196336.12 0 
192615.68 7.1775e-18 196788.70 0 
193059.67 7.1305e-18 197242.31 0 
193504.69 7.0835e-18 197696.97 0 
193950.73 7.0386e-18 198152.67 0 
194397.79 6.9950e-18 198609.42 0 
194845.90 6.9512e-18 199067.23 0 
195295.24 6.9073e-18 199526.31 0 
195745.41 6.8634e-18 199986.23 0 
196196.62 6.8193e-18 200447.22 0 
196648.87 6.7751e-18 200909.27 0 
197102.16 6.7309e-18 201372.38 0 
197556.50 6.6866e-18 201836.56 0 
198012.10 6.6455e-18 202302.03 0 
198468.52 6.6043e-18 202768.34 0 
198926.00 6.5630e-18 203235.73 0 
199384.55 6.5216e-18 203704.22 0 
199844.14 6.4801e-18 204173.77 0 
200304.80 6.4385e-18 204644.41 0 
200766.52 6.3969e-18 205116.12 0 
201229.52 6.3551e-18 205589.16 0 
201693.36 6.3146e-18 206063.05 0 
202158.29 6.2758e-18 206538.05 0 
202624.27 6.2369e-18 207014.12 0 
203091.34 6.1979e-18 207491.31 0 
203559.48 6.1589e-18 207969.59 0 
204028.70 6.1197e-18 208448.98 0 
204499.23 6.0805e-18 208929.70 0 
204970.61 6.0411e-18 209411.30 0 
205443.08 6.0017e-18 209894.00 0 
205916.64 5.9647e-18 210377.83 0 
206391.28 5.9281e-18 210862.75 0 
206867.04 5.8914e-18 211348.81 0 
207344.11 5.8546e-18 211836.22 0 
207822.05 5.8177e-18 212324.52 0 
208301.09 5.7807e-18 212813.94 0 
208781.24 5.7437e-18 213304.48 0 
209262.50 5.7066e-18 213796.17 0 
209744.86 5.6700e-18 214288.98 0 
210228.34 5.6355e-18 214782.94 0 
210713.16 5.6009e-18 215278.27 0 
211198.88 5.5663e-18 215774.50 0 
211685.70 5.5316e-18 216271.88 0 
212173.65 5.4967e-18 216770.39 0 
212662.72 5.4618e-18 217270.06 0 
213152.93 5.4269e-18 217770.89 0 
213644.50 5.3918e-18 218273.11 0 
214136.96 5.3583e-18 218776.23 0 
214630.56 5.3258e-18 219280.53 0 
215125.29 5.2931e-18 219785.98 0 
215621.18 5.2604e-18 220292.61 0 
216118.21 5.2276e-18 220800.41 0 
216616.37 5.1947e-18 221309.36 0 
217115.92 5.1618e-18 221819.73 0 
217616.39 5.1287e-18 222331.05 0 
218118.02 5.0957e-18 222843.55 0 
218620.78 5.0650e-18 223357.20 0 
219124.73 5.0343e-18 223872.06 0 
219629.83 5.0034e-18 224388.11 0 
220136.32 4.9725e-18 224905.58 0 
220643.75 4.9415e-18 225424.00 0 
221152.36 4.9105e-18 225943.62 0 
221662.13 4.8793e-18 226464.44 0 
222173.07 4.8481e-18 226986.45 0 
222685.20 4.8179e-18 227509.67 0 
223198.51 4.7889e-18 228034.11 0 
223713.24 4.7598e-18 228559.98 0 
224228.91 4.7307e-18 229086.83 0 
224745.77 4.7015e-18 229614.89 0 
225263.83 4.6722e-18 230144.17 0 
225783.08 4.6429e-18 230674.67 0 
226303.52 4.6135e-18 231206.39 0 
226825.18 4.5840e-18 231739.34 0 
227348.28 4.5563e-18 232273.78 0 
227872.33 4.5289e-18 232809.19 0 
228397.59 4.5014e-18 233345.83 0 
228924.06 4.4739e-18 233883.70 0 
229451.74 4.4463e-18 234422.81 0 
229980.66 4.4186e-18 234963.19 0 
230511.03 4.3909e-18 235505.05 0 
231042.37 4.3631e-18 236047.91 0 
231574.94 4.3357e-18 236592.02 0 
232108.74 4.3099e-18 237137.38 0 
232643.76 4.2840e-18 237683.98 0 
233180.03 4.2580e-18 238231.88 0 
233717.53 4.2320e-18 238781.02 0 
234256.50 4.2059e-18 239331.67 0 
234796.49 4.1798e-18 239883.36 0 
235337.71 4.1536e-18 240436.30 0 
235880.19 4.1273e-18 240990.53 0 
236423.91 4.1022e-18 241546.03 0 
236968.88 4.0778e-18 242102.81 0 
237515.37 4.0533e-18 242661.14 0 
238062.85 4.0288e-18 243220.48 0 
238611.60 4.0042e-18 243781.12 0 
239161.63 3.9795e-18 244343.06 0 
239712.92 3.9548e-18 244906.30 0 
240265.46 3.9301e-18 245470.81 0 
240819.29 3.9053e-18 246036.64 0 
241374.66 3.8822e-18 246604.05 0 
241931.05 3.8591e-18 247172.48 0 
242488.72 3.8360e-18 247742.23 0 
243047.67 3.8128e-18 248313.30 0 
243607.91 3.7895e-18 248885.67 0 
244169.44 3.7662e-18 249459.38 0 
244732.28 3.7429e-18 250034.41 0 
245296.66 3.7194e-18 250611.02 0 
245862.10 3.6967e-18 251188.70 0 
246428.82 3.6749e-18 251767.70 0 
246996.86 3.6531e-18 252348.05 0 
247566.21 3.6312e-18 252929.73 0 
248136.86 3.6092e-18 253512.75 0 
248709.11 3.5872e-18 254097.39 0 
249282.41 3.5652e-18 254683.11 0 
249857.02 3.5431e-18 255270.17 0 
255676.79 3.3342e-18 261216.03 0 
261632.39 3.1399e-18 267300.66 0 
267726.46 2.9576e-18 273526.75 0 
273962.75 2.7864e-18 279898.16 0 
280344.00 2.6257e-18 286417.66 0 
286874.21 2.4747e-18 293089.34 0 
293556.50 2.3329e-18 299916.41 0 
300394.15 2.2010e-18 306902.19 0 
307391.40 2.0770e-18 314051.03 0 
314551.28 1.9604e-18 321366.03 0 
321878.29 1.8507e-18 328851.78 0 
329375.61 1.7475e-18 336511.53 0 
337047.92 1.6504e-18 344350.06 0 
