# An Atlas of Galaxy Spectral Energy Distributions from the Ultraviolet to the Mid-Infrared
# Brown et al. (2014)
# http://dx.doi.org/10.5072/03/529D3551F0117
# 
# Column 1 : Restframe Wavelength (Angstrom)
# Column 2 : Flux per unit wavelength (ergs/s/cm^2/Angstrom)
# Column 3 : Observed wavelength (Angstrom)
# Column 4 : Source (0 = model, 1 = Optical Spectrum, 2 = Akari, 3 = Spitzer IRS)
# 
   100.04 5.6746e-25    101.62 0 
   101.90 8.6087e-25    103.51 0 
   104.04 1.1774e-24    105.68 0 
   105.97 1.6441e-24    107.65 0 
   107.94 2.3385e-24    109.65 0 
   109.95 3.8013e-24    111.69 0 
   114.07 6.6825e-24    115.88 0 
   118.08 1.0913e-23    119.95 0 
   121.11 4.8299e-23    123.03 0 
   125.08 7.2767e-23    127.06 0 
   127.11 8.6285e-23    129.12 0 
   127.99 9.5486e-23    130.02 0 
   130.98 1.2104e-22    133.05 0 
   131.88 1.4891e-22    133.97 0 
   134.03 1.7177e-22    136.14 0 
   137.15 2.4828e-22    139.32 0 
   140.02 3.0827e-22    142.23 0 
   142.95 8.8092e-22    145.21 0 
   146.96 2.2230e-21    149.28 0 
   151.07 2.7921e-21    153.46 0 
   154.95 3.5640e-21    157.40 0 
   158.92 4.5283e-21    161.44 0 
   161.88 5.3695e-21    164.44 0 
   166.03 6.7911e-21    168.66 0 
   169.90 8.4321e-21    172.58 0 
   173.06 9.6591e-21    175.79 0 
   177.09 1.2386e-20    179.89 0 
   179.97 1.4519e-20    182.81 0 
   182.05 1.6141e-20    184.93 0 
   185.86 1.9950e-20    188.80 0 
   191.07 2.5938e-20    194.09 0 
   194.17 3.0475e-20    197.24 0 
   197.78 3.7320e-20    200.91 0 
   201.92 4.5913e-20    205.12 0 
   205.21 5.3449e-20    208.45 0 
   209.99 6.6060e-20    213.30 0 
   215.87 9.1609e-20    219.28 0 
   219.88 1.1141e-19    223.36 0 
   222.94 1.2675e-19    226.46 0 
   227.08 1.5450e-19    230.67 0 
   230.24 2.2853e-19    233.88 0 
   233.99 4.0173e-19    237.68 0 
   239.99 5.8471e-19    243.78 0 
   246.14 6.9653e-19    250.03 0 
   251.88 9.2883e-19    255.86 0 
   257.15 1.0279e-18    261.22 0 
   260.13 1.2358e-18    264.24 0 
   263.75 1.8447e-18    267.92 0 
   269.27 2.2853e-18    273.53 0 
   274.28 2.7857e-18    278.61 0 
   278.73 2.8506e-18    283.14 0 
   283.92 4.0545e-18    288.40 0 
   289.86 5.1397e-18    294.44 0 
   295.93 5.6877e-18    300.61 0 
   300.74 5.9284e-18    305.49 0 
   307.74 7.8875e-18    312.61 0 
   317.83 1.0374e-17    322.85 0 
   328.24 1.3962e-17    333.43 0 
   338.21 1.6786e-17    343.56 0 
   347.69 1.9996e-17    353.18 0 
   356.61 3.2729e-17    362.24 0 
   365.75 5.9558e-17    371.54 0 
   375.14 6.9974e-17    381.07 0 
   384.76 6.6825e-17    390.84 0 
   394.63 1.1720e-16    400.87 0 
   404.75 1.7019e-16    411.15 0 
   414.18 1.9451e-16    420.73 0 
   421.88 1.9904e-16    428.55 0 
   429.72 2.1327e-16    436.52 0 
   440.75 2.8836e-16    447.71 0 
   451.01 3.3415e-16    458.14 0 
   460.46 3.2956e-16    467.74 0 
   470.10 3.7752e-16    477.53 0 
   479.94 4.7199e-16    487.53 0 
   489.99 4.4765e-16    497.74 0 
   500.25 6.0665e-16    508.16 0 
   506.04 5.5582e-16    514.04 0 
   511.90 9.0144e-16    520.00 0 
   520.22 9.2244e-16    528.45 0 
   529.89 9.3312e-16    538.27 0 
   539.74 8.3548e-16    548.28 0 
   549.78 8.7687e-16    558.47 0 
   560.00 1.2329e-15    568.85 0 
   570.41 1.4755e-15    579.43 0 
   579.68 1.5486e-15    588.84 0 
   590.46 1.6824e-15    599.79 0 
   600.05 1.5203e-15    609.54 0 
   609.80 1.5486e-15    619.44 0 
   619.71 2.0746e-15    629.51 0 
   629.78 2.0603e-15    639.73 0 
   640.01 2.3930e-15    650.13 0 
   650.41 2.4263e-15    660.69 0 
   657.94 2.3224e-15    668.34 0 
   665.56 2.6974e-15    676.08 0 
   674.82 2.9644e-15    685.49 0 
   685.79 2.6726e-15    696.63 0 
   695.33 3.2132e-15    706.32 0 
   705.00 2.7412e-15    716.14 0 
   716.45 3.6053e-15    727.78 0 
   726.42 3.7926e-15    737.90 0 
   734.83 3.9349e-15    746.45 0 
   745.05 3.9531e-15    756.83 0 
   755.42 4.0638e-15    767.36 0 
   764.17 3.7752e-15    776.25 0 
   774.80 4.3445e-15    787.05 0 
   785.58 4.1204e-15    797.99 0 
   794.67 4.5597e-15    807.24 0 
   805.73 4.8188e-15    818.46 0 
   815.06 4.9881e-15    827.94 0 
   824.50 5.1992e-15    837.53 0 
   834.04 4.2947e-15    847.23 0 
   845.65 5.3819e-15    859.01 0 
   855.44 5.4192e-15    868.96 0 
   865.34 5.7536e-15    879.02 0 
   875.36 5.9148e-15    889.20 0 
   885.50 6.0665e-15    899.50 0 
   895.75 6.2221e-15    909.91 0 
   904.04 6.2365e-15    918.33 0 
   914.51 6.1651e-15    928.97 0 
   925.10 1.4620e-14    939.72 0 
   935.81 2.3930e-14    950.60 0 
   944.47 3.4036e-14    959.40 0 
   955.41 4.1585e-14    970.51 0 
   964.25 4.6019e-14    979.49 0 
   975.41 1.6941e-14    990.83 0 
   984.44 3.8454e-14   1000.00 0 
   995.84 3.8454e-14   1011.58 0 
  1005.05 5.0227e-14   1020.94 0 
  1014.35 5.1397e-14   1030.39 0 
  1026.10 3.3261e-14   1042.32 0 
  1035.59 4.4252e-14   1051.96 0 
  1045.17 6.5454e-14   1061.70 0 
  1054.84 6.4112e-14   1071.52 0 
  1064.60 5.4068e-14   1081.43 0 
  1074.46 6.1226e-14   1091.44 0 
  1084.40 5.2837e-14   1101.54 0 
  1094.43 6.4408e-14   1111.73 0 
  1104.56 6.2365e-14   1122.02 0 
  1114.78 6.1367e-14   1132.40 0 
  1125.09 5.5073e-14   1142.88 0 
  1135.50 6.6825e-14   1153.45 0 
  1146.01 6.3232e-14   1164.13 0 
  1153.95 6.5004e-14   1172.20 0 
  1164.63 6.5605e-14   1183.04 0 
  1175.41 4.5913e-14   1193.99 0 
  1186.28 6.3817e-14   1205.04 0 
  1194.51 5.2112e-14   1213.39 0 
  1205.56 4.3645e-14   1224.62 0 
  1213.92 3.4430e-14   1233.11 0 
  1225.15 5.2112e-14   1244.51 0 
  1233.64 6.6825e-14   1253.14 0 
  1245.05 7.0948e-14   1264.74 0 
  1253.68 6.9173e-14   1273.50 0 
  1265.28 6.4705e-14   1285.29 0 
  1274.06 7.6197e-14   1294.20 0 
  1285.84 7.8693e-14   1306.17 0 
  1294.76 6.6825e-14   1315.22 0 
  1303.73 6.6979e-14   1324.34 0 
  1315.80 7.8875e-14   1336.60 0 
  1324.92 7.6022e-14   1345.86 0 
  1334.10 7.0459e-14   1355.19 0 
  1346.44 7.9056e-14   1367.73 0 
  1355.78 7.7257e-14   1377.21 0 
  1365.18 7.1275e-14   1386.76 0 
  1374.64 7.2935e-14   1396.37 0 
  1384.17 7.3272e-14   1406.05 0 
  1393.76 5.9284e-14   1415.79 0 
  1403.42 5.9421e-14   1425.61 0 
  1416.41 6.9653e-14   1438.80 0 
  1426.23 6.9492e-14   1448.77 0 
  1436.11 7.1111e-14   1458.81 0 
  1442.74 7.3441e-14   1465.55 0 
  1446.07 7.4120e-14   1468.93 0 
  1456.09 7.2100e-14   1479.11 0 
  1466.18 6.8067e-14   1489.36 0 
  1476.35 6.8697e-14   1499.69 0 
  1486.58 6.9974e-14   1510.08 0 
  1493.44 7.0297e-14   1517.05 0 
  1503.79 6.7133e-14   1527.57 0 
  1510.74 6.1509e-14   1534.62 0 
  1517.71 6.4556e-14   1541.70 0 
  1524.71 6.3524e-14   1548.82 0 
  1535.28 5.5455e-14   1559.55 0 
  1545.93 5.4694e-14   1570.36 0 
  1556.64 5.3572e-14   1581.25 0 
  1563.83 5.7668e-14   1588.55 0 
  1574.67 6.1509e-14   1599.56 0 
  1585.58 6.3817e-14   1610.65 0 
  1596.57 6.4705e-14   1621.81 0 
  1603.94 6.3378e-14   1629.30 0 
  1615.06 6.3232e-14   1640.59 0 
  1626.25 6.1509e-14   1651.96 0 
  1633.76 6.4854e-14   1659.59 0 
  1645.09 6.5304e-14   1671.09 0 
  1656.49 6.2797e-14   1682.67 0 
  1664.13 6.6365e-14   1690.44 0 
  1671.82 6.0665e-14   1698.24 0 
  1675.67 6.8067e-14   1702.16 0 
  1683.40 6.9014e-14   1710.02 0 
  1695.07 6.5908e-14   1721.87 0 
  1706.82 6.3964e-14   1733.80 0 
  1714.70 6.0945e-14   1741.81 0 
  1726.59 6.0247e-14   1753.88 0 
  1734.56 6.3817e-14   1761.98 0 
  1746.58 6.2797e-14   1774.19 0 
  1754.64 6.5304e-14   1782.38 0 
  1766.80 6.1935e-14   1794.73 0 
  1774.96 6.1935e-14   1803.02 0 
  1783.15 6.3232e-14   1811.34 0 
  1795.51 6.5605e-14   1823.90 0 
  1803.80 6.5756e-14   1832.31 0 
  1816.30 6.1226e-14   1845.02 0 
  1824.69 6.2508e-14   1853.53 0 
  1833.11 6.0945e-14   1862.09 0 
  1845.82 5.6877e-14   1874.99 0 
  1854.34 5.7140e-14   1883.65 0 
  1862.89 5.8336e-14   1892.34 0 
  1875.81 6.1651e-14   1905.46 0 
  1884.47 5.7271e-14   1914.26 0 
  1893.16 5.5073e-14   1923.09 0 
  1906.29 5.8336e-14   1936.42 0 
  1915.09 5.6097e-14   1945.36 0 
  1923.93 5.4568e-14   1954.34 0 
  1932.81 5.7271e-14   1963.36 0 
  1946.20 5.8740e-14   1976.97 0 
  1955.19 5.4568e-14   1986.10 0 
  1968.74 5.9012e-14   1999.86 0 
  1977.83 6.0805e-14   2009.09 0 
  1982.39 5.7801e-14   2013.72 0 
  1996.13 5.6486e-14   2027.68 0 
  2005.34 5.8202e-14   2037.04 0 
  2014.60 5.6877e-14   2046.45 0 
  2023.90 5.9148e-14   2055.89 0 
  2033.24 5.5711e-14   2065.38 0 
  2047.33 5.7140e-14   2079.70 0 
  2056.78 5.2352e-14   2089.30 0 
  2066.28 5.4068e-14   2098.94 0 
  2075.81 5.8740e-14   2108.63 0 
  2085.40 5.7140e-14   2118.36 0 
  2095.02 5.4442e-14   2128.14 0 
  2104.69 5.5327e-14   2137.96 0 
  2114.41 5.5968e-14   2147.83 0 
  2124.17 5.6356e-14   2157.74 0 
  2133.97 5.4068e-14   2167.70 0 
  2143.82 5.3943e-14   2177.71 0 
  2153.72 5.5711e-14   2187.76 0 
  2163.66 5.4442e-14   2197.86 0 
  2173.64 5.4192e-14   2208.01 0 
  2183.68 5.2959e-14   2218.20 0 
  2193.76 5.4820e-14   2228.44 0 
  2203.88 5.3819e-14   2238.72 0 
  2214.05 5.2112e-14   2249.05 0 
  2224.27 5.0926e-14   2259.44 0 
  2234.54 5.2473e-14   2269.86 0 
  2244.86 5.1161e-14   2280.34 0 
  2255.22 4.9767e-14   2290.87 0 
  2265.63 5.0691e-14   2301.44 0 
  2276.08 5.1275e-14   2312.07 0 
  2286.59 5.1627e-14   2322.74 0 
  2297.14 4.8960e-14   2333.46 0 
  2302.44 4.9298e-14   2338.84 0 
  2313.07 4.7841e-14   2349.63 0 
  2323.74 4.0810e-14   2360.48 0 
  2334.47 4.5892e-14   2371.37 0 
  2345.25 4.5364e-14   2382.32 0 
  2356.07 4.6739e-14   2393.32 0 
  2366.95 4.4838e-14   2404.36 0 
  2372.40 4.5044e-14   2409.91 0 
  2383.35 4.3212e-14   2421.03 0 
  2394.35 4.4830e-14   2432.20 0 
  2405.41 4.3605e-14   2443.43 0 
  2416.51 4.4006e-14   2454.71 0 
  2427.66 4.4924e-14   2466.04 0 
  2433.26 4.3497e-14   2471.72 0 
  2444.49 4.4816e-14   2483.13 0 
  2455.77 4.4197e-14   2494.60 0 
  2467.11 4.3991e-14   2506.11 0 
  2472.80 4.2988e-14   2511.89 0 
  2484.21 4.3583e-14   2523.48 0 
  2495.68 3.8930e-14   2535.13 0 
  2507.20 4.3677e-14   2546.83 0 
  2512.98 4.1043e-14   2552.70 0 
  2518.77 4.2483e-14   2558.59 0 
  2524.58 4.1419e-14   2564.48 0 
  2536.23 4.1416e-14   2576.32 0 
  2542.07 4.0659e-14   2582.26 0 
  2553.81 4.1795e-14   2594.18 0 
  2565.60 4.1408e-14   2606.15 0 
  2577.44 4.2467e-14   2618.18 0 
  2583.38 4.2173e-14   2624.22 0 
  2595.30 4.1783e-14   2636.33 0 
  2607.28 4.0923e-14   2648.50 0 
  2613.29 4.0546e-14   2654.61 0 
  2625.36 4.1107e-14   2666.86 0 
  2637.48 4.1199e-14   2679.17 0 
  2643.55 4.2449e-14   2685.34 0 
  2655.76 4.2348e-14   2697.74 0 
  2668.02 4.0346e-14   2710.19 0 
  2674.17 4.1094e-14   2716.44 0 
  2686.51 4.0902e-14   2728.98 0 
  2692.70 3.9786e-14   2735.27 0 
  2705.13 4.0058e-14   2747.89 0 
  2717.62 3.9143e-14   2760.58 0 
  2723.88 3.9232e-14   2766.94 0 
  2736.46 3.9866e-14   2779.71 0 
  2742.76 3.7548e-14   2786.12 0 
  2755.42 3.7545e-14   2798.98 0 
  2768.14 3.7976e-14   2811.90 0 
  2774.52 3.8859e-14   2818.38 0 
  2787.33 3.8147e-14   2831.39 0 
  2793.76 3.4233e-14   2837.92 0 
  2806.65 3.5678e-14   2851.02 0 
  2813.12 3.8317e-14   2857.59 0 
  2826.11 3.8402e-14   2870.78 0 
  2832.62 3.7011e-14   2877.40 0 
  2845.69 3.6753e-14   2890.68 0 
  2852.25 3.6499e-14   2897.34 0 
  2865.42 3.7346e-14   2910.72 0 
  2872.03 3.6832e-14   2917.43 0 
  2885.28 3.6828e-14   2930.89 0 
  2891.93 3.6405e-14   2937.65 0 
  2911.98 3.7248e-14   2958.01 0 
  2932.16 3.6480e-14   2978.52 0 
  2952.49 3.5892e-14   2999.16 0 
  2972.96 3.5804e-14   3019.95 0 
  2986.68 3.5473e-14   3033.89 0 
  3007.38 3.5305e-14   3054.92 0 
  3028.23 3.5057e-14   3076.10 0 
  3049.22 3.4651e-14   3097.42 0 
  3070.35 3.4329e-14   3118.89 0 
  3091.64 3.4009e-14   3140.51 0 
  3113.07 3.3693e-14   3162.28 0 
  3127.44 3.3227e-14   3176.87 0 
  3149.11 3.3070e-14   3198.90 0 
  3170.94 3.2612e-14   3221.07 0 
  3192.92 3.1792e-14   3243.40 0 
  3207.66 3.1862e-14   3258.37 0 
  3229.89 3.1348e-14   3280.95 0 
  3252.28 3.1415e-14   3303.70 0 
  3267.29 3.1268e-14   3318.94 0 
  3289.94 3.0977e-14   3341.95 0 
  3312.75 3.0759e-14   3365.12 0 
  3320.39 3.1474e-14   3372.87 0 
  3328.04 3.1400e-14   3380.65 0 
  3335.71 3.1471e-14   3388.44 0 
  3343.40 3.0053e-14   3396.25 0 
  3351.11 3.1179e-14   3404.08 0 
  3358.83 2.9569e-14   3411.93 0 
  3366.57 3.0048e-14   3419.79 0 
  3374.34 2.9430e-14   3427.68 0 
  3382.12 2.9429e-14   3435.58 0 
  3389.91 3.0322e-14   3443.50 0 
  3397.73 3.0530e-14   3451.44 0 
  3405.56 2.9424e-14   3459.39 0 
  3413.41 2.9559e-14   3467.37 0 
  3421.28 3.0176e-14   3475.36 0 
  3429.17 2.9967e-14   3483.37 0 
  3437.07 3.0173e-14   3491.40 0 
  3444.99 2.9080e-14   3499.45 0 
  3452.94 3.0239e-14   3507.52 0 
  3460.89 2.8744e-14   3515.60 0 
  3468.87 2.8743e-14   3523.71 0 
  3476.87 2.8478e-14   3531.83 0 
  3484.88 2.8411e-14   3539.97 0 
  3492.92 2.9004e-14   3548.13 0 
  3500.97 2.8539e-14   3556.31 0 
  3509.04 2.7824e-14   3564.51 0 
  3517.13 2.7631e-14   3572.73 0 
  3525.24 2.8208e-14   3580.96 0 
  3533.36 2.8533e-14   3589.22 0 
  3541.51 2.8663e-14   3597.49 0 
  3549.67 2.8927e-14   3605.79 0 
  3557.86 2.8463e-14   3614.10 0 
  3566.06 2.8791e-14   3622.43 0 
  3574.28 2.7557e-14   3630.78 0 
  3582.52 2.6743e-14   3639.15 0 
  3590.78 2.6253e-14   3647.54 0 
  3599.05 2.7112e-14   3655.95 0 
  3607.35 2.7110e-14   3664.37 0 
  3615.67 2.7423e-14   3672.82 0 
  3624.00 2.7739e-14   3681.29 0 
  3629.87 2.7191e-14   3687.25 1 
  3632.58 2.8646e-14   3690.00 1 
  3635.28 2.6456e-14   3692.75 1 
  3637.99 2.9953e-14   3695.50 1 
  3640.70 3.0710e-14   3698.25 1 
  3643.41 3.1743e-14   3701.00 1 
  3646.11 3.0881e-14   3703.75 1 
  3648.82 2.7196e-14   3706.50 1 
  3651.53 2.8559e-14   3709.25 1 
  3654.23 2.8557e-14   3712.00 1 
  3656.94 2.7690e-14   3714.75 1 
  3659.65 2.7869e-14   3717.50 1 
  3662.36 2.8299e-14   3720.25 1 
  3665.06 3.1015e-14   3723.00 1 
  3667.77 2.7316e-14   3725.75 1 
  3670.48 2.5527e-14   3728.50 1 
  3673.18 2.5818e-14   3731.25 1 
  3675.89 2.6255e-14   3734.00 1 
  3678.60 2.6344e-14   3736.75 1 
  3681.31 2.5181e-14   3739.50 1 
  3684.01 2.7533e-14   3742.25 1 
  3686.72 2.6215e-14   3745.00 1 
  3689.43 2.5191e-14   3747.75 1 
  3692.13 2.5294e-14   3750.50 1 
  3694.84 2.7452e-14   3753.25 1 
  3697.55 2.5569e-14   3756.00 1 
  3700.26 2.5780e-14   3758.75 1 
  3702.96 2.3089e-14   3761.50 1 
  3705.67 2.2964e-14   3764.25 1 
  3708.38 2.6135e-14   3767.00 1 
  3711.09 2.8237e-14   3769.75 1 
  3713.79 2.7807e-14   3772.50 1 
  3716.50 3.2868e-14   3775.25 1 
  3719.21 5.1061e-14   3778.00 1 
  3721.91 9.3280e-14   3780.75 1 
  3724.62 1.5227e-13   3783.50 1 
  3727.33 1.8888e-13   3786.25 1 
  3730.04 1.6634e-13   3789.00 1 
  3732.74 1.0984e-13   3791.75 1 
  3735.45 5.8746e-14   3794.50 1 
  3738.16 3.8994e-14   3797.25 1 
  3740.86 3.4121e-14   3800.00 1 
  3743.57 3.0196e-14   3802.75 1 
  3746.28 2.6748e-14   3805.50 1 
  3748.99 2.7434e-14   3808.25 1 
  3751.69 2.9149e-14   3811.00 1 
  3754.40 3.0969e-14   3813.75 1 
  3757.11 3.0505e-14   3816.50 1 
  3759.81 3.2597e-14   3819.25 1 
  3762.52 3.2512e-14   3822.00 1 
  3765.23 2.6367e-14   3824.75 1 
  3767.94 2.6937e-14   3827.50 1 
  3770.64 2.6367e-14   3830.25 1 
  3773.35 2.7386e-14   3833.00 1 
  3776.06 3.0639e-14   3835.75 1 
  3778.77 3.0954e-14   3838.50 1 
  3781.47 3.2263e-14   3841.25 1 
  3784.18 3.3001e-14   3844.00 1 
  3786.89 3.2768e-14   3846.75 1 
  3789.59 3.2251e-14   3849.50 1 
  3792.30 2.9723e-14   3852.25 1 
  3795.01 2.7818e-14   3855.00 1 
  3797.72 2.7897e-14   3857.75 1 
  3800.42 2.9037e-14   3860.50 1 
  3803.13 3.1613e-14   3863.25 1 
  3805.84 3.3014e-14   3866.00 1 
  3808.54 3.6478e-14   3868.75 1 
  3811.25 3.4047e-14   3871.50 1 
  3813.96 3.6009e-14   3874.25 1 
  3816.67 3.4803e-14   3877.00 1 
  3819.37 3.5138e-14   3879.75 1 
  3822.08 3.5110e-14   3882.50 1 
  3824.79 3.3174e-14   3885.25 1 
  3827.49 3.1649e-14   3888.00 1 
  3830.20 2.9662e-14   3890.75 1 
  3832.91 2.6807e-14   3893.50 1 
  3835.62 2.8857e-14   3896.25 1 
  3838.32 3.0030e-14   3899.00 1 
  3841.03 2.8879e-14   3901.75 1 
  3843.74 3.1677e-14   3904.50 1 
  3846.45 3.3554e-14   3907.25 1 
  3849.15 3.3259e-14   3910.00 1 
  3851.86 3.5781e-14   3912.75 1 
  3854.57 3.4615e-14   3915.50 1 
  3857.27 3.3675e-14   3918.25 1 
  3859.98 3.5119e-14   3921.00 1 
  3862.69 4.0309e-14   3923.75 1 
  3865.40 4.2416e-14   3926.50 1 
  3868.10 4.1217e-14   3929.25 1 
  3870.81 4.0210e-14   3932.00 1 
  3873.52 3.6192e-14   3934.75 1 
  3876.22 3.4803e-14   3937.50 1 
  3878.93 3.3352e-14   3940.25 1 
  3881.64 3.3861e-14   3943.00 1 
  3884.35 3.4264e-14   3945.75 1 
  3887.05 3.3545e-14   3948.50 1 
  3889.76 3.6918e-14   3951.25 1 
  3892.47 3.5013e-14   3954.00 1 
  3895.18 3.1321e-14   3956.75 1 
  3897.88 3.1767e-14   3959.50 1 
  3900.59 3.3068e-14   3962.25 1 
  3903.30 3.3325e-14   3965.00 1 
  3906.00 3.3854e-14   3967.75 1 
  3908.71 3.5258e-14   3970.50 1 
  3911.42 3.7387e-14   3973.25 1 
  3914.13 3.6484e-14   3976.00 1 
  3916.83 3.5448e-14   3978.75 1 
  3919.54 3.5175e-14   3981.50 1 
  3922.25 3.4477e-14   3984.25 1 
  3924.95 3.6450e-14   3987.00 1 
  3927.66 3.3874e-14   3989.75 1 
  3930.37 3.3284e-14   3992.50 1 
  3933.08 3.2052e-14   3995.25 1 
  3935.78 3.0028e-14   3998.00 1 
  3938.49 3.3278e-14   4000.75 1 
  3941.20 3.1717e-14   4003.50 1 
  3943.90 3.4432e-14   4006.25 1 
  3946.61 3.3349e-14   4009.00 1 
  3949.32 3.3531e-14   4011.75 1 
  3952.03 3.5665e-14   4014.50 1 
  3954.73 3.4038e-14   4017.25 1 
  3957.44 3.2366e-14   4020.00 1 
  3960.15 3.2898e-14   4022.75 1 
  3962.86 3.0299e-14   4025.50 1 
  3965.56 3.1743e-14   4028.25 1 
  3968.27 3.2345e-14   4031.00 1 
  3970.98 3.3890e-14   4033.75 1 
  3973.68 3.1157e-14   4036.50 1 
  3976.39 3.3125e-14   4039.25 1 
  3979.10 3.2569e-14   4042.00 1 
  3981.81 3.2728e-14   4044.75 1 
  3984.51 3.2959e-14   4047.50 1 
  3987.22 3.4890e-14   4050.25 1 
  3989.93 3.4299e-14   4053.00 1 
  3992.63 3.7871e-14   4055.75 1 
  3995.34 3.8022e-14   4058.50 1 
  3998.05 3.6521e-14   4061.25 1 
  4000.76 3.7898e-14   4064.00 1 
  4003.46 3.5496e-14   4066.75 1 
  4006.17 3.5239e-14   4069.50 1 
  4008.88 3.6565e-14   4072.25 1 
  4011.58 3.7644e-14   4075.00 1 
  4014.29 3.7801e-14   4077.75 1 
  4017.00 3.6812e-14   4080.50 1 
  4019.71 3.5614e-14   4083.25 1 
  4022.41 3.6970e-14   4086.00 1 
  4025.12 3.7421e-14   4088.75 1 
  4027.83 3.6097e-14   4091.50 1 
  4030.54 3.5681e-14   4094.25 1 
  4033.24 3.6688e-14   4097.00 1 
  4035.95 3.9461e-14   4099.75 1 
  4038.66 3.8967e-14   4102.50 1 
  4041.36 3.6189e-14   4105.25 1 
  4044.07 3.7272e-14   4108.00 1 
  4046.78 3.4783e-14   4110.75 1 
  4049.49 3.7568e-14   4113.50 1 
  4052.19 3.6660e-14   4116.25 1 
  4054.90 3.8710e-14   4119.00 1 
  4057.61 3.8690e-14   4121.75 1 
  4060.31 3.9475e-14   4124.50 1 
  4063.02 3.6180e-14   4127.25 1 
  4065.73 3.6108e-14   4130.00 1 
  4068.44 3.6992e-14   4132.75 1 
  4071.14 3.6847e-14   4135.50 1 
  4073.85 3.4261e-14   4138.25 1 
  4076.56 3.5981e-14   4141.00 1 
  4079.26 3.4489e-14   4143.75 1 
  4081.97 3.3983e-14   4146.50 1 
  4084.68 3.4645e-14   4149.25 1 
  4087.39 3.1608e-14   4152.00 1 
  4090.09 3.1660e-14   4154.75 1 
  4092.80 3.3057e-14   4157.50 1 
  4095.51 3.2394e-14   4160.25 1 
  4098.22 3.3930e-14   4163.00 1 
  4100.92 4.0262e-14   4165.75 1 
  4103.63 3.9676e-14   4168.50 1 
  4106.34 3.5472e-14   4171.25 1 
  4109.04 3.2726e-14   4174.00 1 
  4111.75 3.2150e-14   4176.75 1 
  4114.46 3.2420e-14   4179.50 1 
  4117.17 3.2593e-14   4182.25 1 
  4119.87 3.3088e-14   4185.00 1 
  4122.58 3.3114e-14   4187.75 1 
  4125.29 3.5370e-14   4190.50 1 
  4127.99 3.3888e-14   4193.25 1 
  4130.70 3.3308e-14   4196.00 1 
  4133.41 3.4513e-14   4198.75 1 
  4136.12 3.6319e-14   4201.50 1 
  4138.82 3.4791e-14   4204.25 1 
  4141.53 3.4204e-14   4207.00 1 
  4144.24 3.4048e-14   4209.75 1 
  4146.95 3.4579e-14   4212.50 1 
  4149.65 3.5182e-14   4215.25 1 
  4152.36 3.6013e-14   4218.00 1 
  4155.07 3.4908e-14   4220.75 1 
  4157.77 3.6540e-14   4223.50 1 
  4160.48 3.6279e-14   4226.25 1 
  4163.19 3.5281e-14   4229.00 1 
  4165.90 3.5722e-14   4231.75 1 
  4168.60 3.6885e-14   4234.50 1 
  4171.31 3.4556e-14   4237.25 1 
  4174.02 3.4908e-14   4240.00 1 
  4176.72 3.4964e-14   4242.75 1 
  4179.43 3.4613e-14   4245.50 1 
  4182.14 3.4170e-14   4248.25 1 
  4184.85 3.3878e-14   4251.00 1 
  4187.55 3.2305e-14   4253.75 1 
  4190.26 3.3822e-14   4256.50 1 
  4192.97 3.4834e-14   4259.25 1 
  4195.67 3.3971e-14   4262.00 1 
  4198.38 3.5252e-14   4264.75 1 
  4201.09 3.4922e-14   4267.50 1 
  4203.80 3.3127e-14   4270.25 1 
  4206.50 3.3864e-14   4273.00 1 
  4209.21 3.4445e-14   4275.75 1 
  4211.92 3.4072e-14   4278.50 1 
  4214.63 3.5254e-14   4281.25 1 
  4217.33 3.4488e-14   4284.00 1 
  4220.04 3.4647e-14   4286.75 1 
  4222.75 3.5291e-14   4289.50 1 
  4225.45 3.3760e-14   4292.25 1 
  4228.16 3.3541e-14   4295.00 1 
  4230.87 3.2666e-14   4297.75 1 
  4233.58 3.3280e-14   4300.50 1 
  4236.28 3.4303e-14   4303.25 1 
  4238.99 3.3853e-14   4306.00 1 
  4241.70 3.3044e-14   4308.75 1 
  4244.40 3.3230e-14   4311.50 1 
  4247.11 3.3961e-14   4314.25 1 
  4249.82 3.3303e-14   4317.00 1 
  4252.53 3.3100e-14   4319.75 1 
  4255.23 3.3638e-14   4322.50 1 
  4257.94 3.3611e-14   4325.25 1 
  4260.65 3.3598e-14   4328.00 1 
  4263.35 3.3214e-14   4330.75 1 
  4266.06 3.2312e-14   4333.50 1 
  4268.77 3.2573e-14   4336.25 1 
  4271.48 3.3177e-14   4339.00 1 
  4274.18 3.2838e-14   4341.75 1 
  4276.89 3.2541e-14   4344.50 1 
  4279.60 3.2502e-14   4347.25 1 
  4282.31 3.3260e-14   4350.00 1 
  4285.01 3.3995e-14   4352.75 1 
  4287.72 3.2670e-14   4355.50 1 
  4290.43 3.3409e-14   4358.25 1 
  4293.13 3.2384e-14   4361.00 1 
  4295.84 3.1874e-14   4363.75 1 
  4298.55 3.2770e-14   4366.50 1 
  4301.26 3.1591e-14   4369.25 1 
  4303.96 3.0501e-14   4372.00 1 
  4306.67 3.1273e-14   4374.75 1 
  4309.38 3.1277e-14   4377.50 1 
  4312.08 3.1356e-14   4380.25 1 
  4314.79 3.1764e-14   4383.00 1 
  4317.50 3.1309e-14   4385.75 1 
  4320.21 3.0085e-14   4388.50 1 
  4322.91 3.0866e-14   4391.25 1 
  4325.62 3.0640e-14   4394.00 1 
  4328.33 2.9687e-14   4396.75 1 
  4331.03 3.0628e-14   4399.50 1 
  4333.74 3.4363e-14   4402.25 1 
  4336.45 4.0689e-14   4405.00 1 
  4339.16 4.8417e-14   4407.75 1 
  4341.86 4.7418e-14   4410.50 1 
  4344.57 4.0345e-14   4413.25 1 
  4347.28 3.2214e-14   4416.00 1 
  4349.99 2.9708e-14   4418.75 1 
  4352.69 3.0311e-14   4421.50 1 
  4355.40 3.0425e-14   4424.25 1 
  4358.11 3.2275e-14   4427.00 1 
  4360.81 3.2333e-14   4429.75 1 
  4363.52 3.2574e-14   4432.50 1 
  4366.23 3.1955e-14   4435.25 1 
  4368.94 3.1798e-14   4438.00 1 
  4371.64 3.1812e-14   4440.75 1 
  4374.35 3.1678e-14   4443.50 1 
  4377.06 3.1521e-14   4446.25 1 
  4379.76 3.2994e-14   4449.00 1 
  4382.47 3.1933e-14   4451.75 1 
  4385.18 3.1113e-14   4454.50 1 
  4387.89 3.0774e-14   4457.25 1 
  4390.59 3.1431e-14   4460.00 1 
  4393.30 3.0665e-14   4462.75 1 
  4396.01 3.0577e-14   4465.50 1 
  4398.72 3.1130e-14   4468.25 1 
  4401.42 3.1952e-14   4471.00 1 
  4404.13 2.9621e-14   4473.75 1 
  4406.84 3.1343e-14   4476.50 1 
  4409.54 3.1259e-14   4479.25 1 
  4412.25 3.0808e-14   4482.00 1 
  4414.96 3.0733e-14   4484.75 1 
  4417.67 3.1137e-14   4487.50 1 
  4420.37 3.3296e-14   4490.25 1 
  4423.08 3.3285e-14   4493.00 1 
  4425.79 3.3233e-14   4495.75 1 
  4428.49 3.3036e-14   4498.50 1 
  4431.20 3.1977e-14   4501.25 1 
  4433.91 3.1809e-14   4504.00 1 
  4436.62 3.0965e-14   4506.75 1 
  4439.32 3.1677e-14   4509.50 1 
  4442.03 3.1647e-14   4512.25 1 
  4444.74 3.0938e-14   4515.00 1 
  4447.44 3.1470e-14   4517.75 1 
  4450.15 3.1035e-14   4520.50 1 
  4452.86 3.1228e-14   4523.25 1 
  4455.57 3.1558e-14   4526.00 1 
  4458.27 3.2378e-14   4528.75 1 
  4460.98 3.0418e-14   4531.50 1 
  4463.69 2.9362e-14   4534.25 1 
  4466.40 2.9537e-14   4537.00 1 
  4469.10 3.2430e-14   4539.75 1 
  4471.81 3.2478e-14   4542.50 1 
  4474.52 3.2746e-14   4545.25 1 
  4477.22 3.1985e-14   4548.00 1 
  4479.93 3.1813e-14   4550.75 1 
  4482.64 3.1258e-14   4553.50 1 
  4485.35 3.1446e-14   4556.25 1 
  4488.05 2.8856e-14   4559.00 1 
  4490.76 3.0445e-14   4561.75 1 
  4493.47 3.1790e-14   4564.50 1 
  4496.17 3.0232e-14   4567.25 1 
  4498.88 3.0300e-14   4570.00 1 
  4501.59 3.1208e-14   4572.75 1 
  4504.30 3.1325e-14   4575.50 1 
  4507.00 3.2812e-14   4578.25 1 
  4509.71 3.1466e-14   4581.00 1 
  4512.42 3.0305e-14   4583.75 1 
  4515.12 3.1373e-14   4586.50 1 
  4517.83 3.1979e-14   4589.25 1 
  4520.54 3.1014e-14   4592.00 1 
  4523.25 3.0690e-14   4594.75 1 
  4525.95 3.1188e-14   4597.50 1 
  4528.66 3.0957e-14   4600.25 1 
  4531.37 3.2308e-14   4603.00 1 
  4534.08 3.1237e-14   4605.75 1 
  4536.78 3.1585e-14   4608.50 1 
  4539.49 3.1506e-14   4611.25 1 
  4542.20 3.0765e-14   4614.00 1 
  4544.90 3.0476e-14   4616.75 1 
  4547.61 3.0437e-14   4619.50 1 
  4550.32 3.0923e-14   4622.25 1 
  4553.03 3.2305e-14   4625.00 1 
  4555.73 3.0531e-14   4627.75 1 
  4558.44 3.0589e-14   4630.50 1 
  4561.15 3.1165e-14   4633.25 1 
  4563.85 2.9866e-14   4636.00 1 
  4566.56 3.3460e-14   4638.75 1 
  4569.27 3.2824e-14   4641.50 1 
  4571.98 3.1100e-14   4644.25 1 
  4574.68 3.1982e-14   4647.00 1 
  4577.39 3.0952e-14   4649.75 1 
  4580.10 3.0981e-14   4652.50 1 
  4582.81 3.0181e-14   4655.25 1 
  4585.51 2.9348e-14   4658.00 1 
  4588.22 3.0830e-14   4660.75 1 
  4590.93 2.9407e-14   4663.50 1 
  4593.63 3.0877e-14   4666.25 1 
  4596.34 2.9501e-14   4669.00 1 
  4599.05 3.0440e-14   4671.75 1 
  4601.76 2.9446e-14   4674.50 1 
  4604.46 3.0435e-14   4677.25 1 
  4607.17 2.9870e-14   4680.00 1 
  4609.88 2.9816e-14   4682.75 1 
  4612.58 2.9964e-14   4685.50 1 
  4615.29 3.1347e-14   4688.25 1 
  4618.00 3.0808e-14   4691.00 1 
  4620.71 3.1346e-14   4693.75 1 
  4623.41 3.0777e-14   4696.50 1 
  4626.12 2.9484e-14   4699.25 1 
  4628.83 3.1345e-14   4702.00 1 
  4631.53 3.1311e-14   4704.75 1 
  4634.24 2.9829e-14   4707.50 1 
  4636.95 3.0368e-14   4710.25 1 
  4639.66 3.1238e-14   4713.00 1 
  4642.36 3.1089e-14   4715.75 1 
  4645.07 2.9796e-14   4718.50 1 
  4647.78 2.9161e-14   4721.25 1 
  4650.49 3.0001e-14   4724.00 1 
  4653.19 3.1819e-14   4726.75 1 
  4655.90 3.2138e-14   4729.50 1 
  4658.61 3.0441e-14   4732.25 1 
  4661.31 3.0441e-14   4735.00 1 
  4664.02 2.9294e-14   4737.75 1 
  4666.73 2.9357e-14   4740.50 1 
  4669.44 2.9598e-14   4743.25 1 
  4672.14 2.9564e-14   4746.00 1 
  4674.85 3.0880e-14   4748.75 1 
  4677.56 2.9925e-14   4751.50 1 
  4680.26 3.1164e-14   4754.25 1 
  4682.97 3.1515e-14   4757.00 1 
  4685.68 2.9289e-14   4759.75 1 
  4688.39 2.9880e-14   4762.50 1 
  4691.09 2.9004e-14   4765.25 1 
  4693.80 3.0559e-14   4768.00 1 
  4696.51 3.0845e-14   4770.75 1 
  4699.21 3.0695e-14   4773.50 1 
  4701.92 3.0617e-14   4776.25 1 
  4704.63 3.0575e-14   4779.00 1 
  4707.34 3.0293e-14   4781.75 1 
  4710.04 2.8781e-14   4784.50 1 
  4712.75 3.0171e-14   4787.25 1 
  4715.46 2.8589e-14   4790.00 1 
  4718.17 2.9173e-14   4792.75 1 
  4720.87 2.8647e-14   4795.50 1 
  4723.58 3.0656e-14   4798.25 1 
  4726.29 2.9946e-14   4801.00 1 
  4728.99 3.0044e-14   4803.75 1 
  4731.70 2.9180e-14   4806.50 1 
  4734.41 2.9897e-14   4809.25 1 
  4737.12 2.9525e-14   4812.00 1 
  4739.82 2.9603e-14   4814.75 1 
  4742.53 2.9589e-14   4817.50 1 
  4745.24 2.8975e-14   4820.25 1 
  4747.94 3.0521e-14   4823.00 1 
  4750.65 2.9834e-14   4825.75 1 
  4753.36 2.9537e-14   4828.50 1 
  4756.07 2.9490e-14   4831.25 1 
  4758.77 2.8585e-14   4834.00 1 
  4761.48 2.8728e-14   4836.75 1 
  4764.19 2.7879e-14   4839.50 1 
  4766.89 3.0083e-14   4842.25 1 
  4769.60 2.9471e-14   4845.00 1 
  4772.31 3.0154e-14   4847.75 1 
  4775.02 2.9908e-14   4850.50 1 
  4777.72 2.9584e-14   4853.25 1 
  4780.43 2.9119e-14   4856.00 1 
  4783.14 2.8019e-14   4858.75 1 
  4785.85 2.7429e-14   4861.50 1 
  4788.55 2.8551e-14   4864.25 1 
  4791.26 2.8013e-14   4867.00 1 
  4793.97 2.7731e-14   4869.75 1 
  4796.67 2.9341e-14   4872.50 1 
  4799.38 2.9905e-14   4875.25 1 
  4802.09 3.0155e-14   4878.00 1 
  4804.80 3.0810e-14   4880.75 1 
  4807.50 2.9817e-14   4883.50 1 
  4810.21 2.9337e-14   4886.25 1 
  4812.92 2.8357e-14   4889.00 1 
  4815.62 2.9595e-14   4891.75 1 
  4818.33 2.8943e-14   4894.50 1 
  4821.04 2.8633e-14   4897.25 1 
  4823.75 2.7927e-14   4900.00 1 
  4826.45 2.8383e-14   4902.75 1 
  4829.16 2.7788e-14   4905.50 1 
  4831.87 2.7082e-14   4908.25 1 
  4834.58 2.8749e-14   4911.00 1 
  4837.28 2.7366e-14   4913.75 1 
  4839.99 2.8106e-14   4916.50 1 
  4842.70 2.6807e-14   4919.25 1 
  4845.40 2.6885e-14   4922.00 1 
  4848.11 2.6847e-14   4924.75 1 
  4850.82 2.8208e-14   4927.50 1 
  4853.53 3.4092e-14   4930.25 1 
  4856.23 4.8987e-14   4933.00 1 
  4858.94 7.1465e-14   4935.75 1 
  4861.65 8.1275e-14   4938.50 1 
  4864.35 7.1951e-14   4941.25 1 
  4867.06 5.0191e-14   4944.00 1 
  4869.77 3.4043e-14   4946.75 1 
  4872.48 2.7524e-14   4949.50 1 
  4875.18 2.5227e-14   4952.25 1 
  4877.89 2.6615e-14   4955.00 1 
  4880.60 2.7112e-14   4957.75 1 
  4883.30 2.7197e-14   4960.50 1 
  4886.01 2.5997e-14   4963.25 1 
  4888.72 2.6070e-14   4966.00 1 
  4891.43 2.6990e-14   4968.75 1 
  4894.13 2.8043e-14   4971.50 1 
  4896.84 2.8819e-14   4974.25 1 
  4899.55 2.8099e-14   4977.00 1 
  4902.26 2.8086e-14   4979.75 1 
  4904.96 2.7941e-14   4982.50 1 
  4907.67 2.6835e-14   4985.25 1 
  4910.38 2.7500e-14   4988.00 1 
  4913.08 2.7448e-14   4990.75 1 
  4915.79 2.6839e-14   4993.50 1 
  4918.50 2.6611e-14   4996.25 1 
  4921.21 2.6638e-14   4999.00 1 
  4923.91 2.6593e-14   5001.75 1 
  4926.62 2.6613e-14   5004.50 1 
  4929.33 2.7073e-14   5007.25 1 
  4932.03 2.6278e-14   5010.00 1 
  4934.74 2.6993e-14   5012.75 1 
  4937.45 2.7308e-14   5015.50 1 
  4940.16 2.6352e-14   5018.25 1 
  4942.86 2.7142e-14   5021.00 1 
  4945.57 2.8604e-14   5023.75 1 
  4948.28 2.9270e-14   5026.50 1 
  4950.98 3.2861e-14   5029.25 1 
  4953.69 4.1840e-14   5032.00 1 
  4956.40 5.4616e-14   5034.75 1 
  4959.11 6.2997e-14   5037.50 1 
  4961.81 5.7502e-14   5040.25 1 
  4964.52 4.4172e-14   5043.00 1 
  4967.23 3.3502e-14   5045.75 1 
  4969.94 2.8806e-14   5048.50 1 
  4972.64 2.7507e-14   5051.25 1 
  4975.35 2.7804e-14   5054.00 1 
  4978.06 2.8136e-14   5056.75 1 
  4980.76 2.7908e-14   5059.50 1 
  4983.47 2.7361e-14   5062.25 1 
  4986.18 2.8221e-14   5065.00 1 
  4988.89 2.7789e-14   5067.75 1 
  4991.59 2.7054e-14   5070.50 1 
  4994.30 2.8771e-14   5073.25 1 
  4997.01 3.2511e-14   5076.00 1 
  4999.71 4.8292e-14   5078.75 1 
  5002.42 8.3350e-14   5081.50 1 
  5005.13 1.2313e-13   5084.25 1 
  5007.84 1.3486e-13   5087.00 1 
  5010.54 1.0698e-13   5089.75 1 
  5013.25 6.7740e-14   5092.50 1 
  5015.96 4.1305e-14   5095.25 1 
  5018.66 3.0856e-14   5098.00 1 
  5021.37 2.7901e-14   5100.75 1 
  5024.08 2.6443e-14   5103.50 1 
  5026.79 2.6388e-14   5106.25 1 
  5029.49 2.6681e-14   5109.00 1 
  5032.20 2.7084e-14   5111.75 1 
  5034.91 2.6626e-14   5114.50 1 
  5037.62 2.7094e-14   5117.25 1 
  5040.32 2.6692e-14   5120.00 1 
  5043.03 2.6388e-14   5122.75 1 
  5045.74 2.6994e-14   5125.50 1 
  5048.44 2.6630e-14   5128.25 1 
  5051.15 2.6401e-14   5131.00 1 
  5053.86 2.7288e-14   5133.75 1 
  5056.57 2.7568e-14   5136.50 1 
  5059.27 2.7507e-14   5139.25 1 
  5061.98 2.7419e-14   5142.00 1 
  5064.69 2.6466e-14   5144.75 1 
  5067.39 2.5969e-14   5147.50 1 
  5070.10 2.6171e-14   5150.25 1 
  5072.81 2.5919e-14   5153.00 1 
  5075.52 2.5686e-14   5155.75 1 
  5078.22 2.5972e-14   5158.50 1 
  5080.93 2.5342e-14   5161.25 1 
  5083.64 2.5630e-14   5164.00 1 
  5086.35 2.6041e-14   5166.75 1 
  5089.05 2.6273e-14   5169.50 1 
  5091.76 2.6106e-14   5172.25 1 
  5094.47 2.6215e-14   5175.00 1 
  5097.17 2.6278e-14   5177.75 1 
  5099.88 2.5662e-14   5180.50 1 
  5102.59 2.5318e-14   5183.25 1 
  5105.30 2.6036e-14   5186.00 1 
  5108.00 2.6181e-14   5188.75 1 
  5110.71 2.5426e-14   5191.50 1 
  5113.42 2.5880e-14   5194.25 1 
  5116.12 2.5963e-14   5197.00 1 
  5118.83 2.5931e-14   5199.75 1 
  5121.54 2.6183e-14   5202.50 1 
  5124.25 2.5555e-14   5205.25 1 
  5126.95 2.4850e-14   5208.00 1 
  5129.66 2.5030e-14   5210.75 1 
  5132.37 2.5861e-14   5213.50 1 
  5135.07 2.5444e-14   5216.25 1 
  5137.78 2.5472e-14   5219.00 1 
  5140.49 2.5853e-14   5221.75 1 
  5143.20 2.5541e-14   5224.50 1 
  5145.90 2.4795e-14   5227.25 1 
  5148.61 2.4783e-14   5230.00 1 
  5151.32 2.5858e-14   5232.75 1 
  5154.03 2.5044e-14   5235.50 1 
  5156.73 2.5037e-14   5238.25 1 
  5159.44 2.5344e-14   5241.00 1 
  5162.15 2.4679e-14   5243.75 1 
  5164.85 2.4656e-14   5246.50 1 
  5167.56 2.4501e-14   5249.25 1 
  5170.27 2.3891e-14   5252.00 1 
  5172.98 2.3272e-14   5254.75 1 
  5175.68 2.3972e-14   5257.50 1 
  5178.39 2.5163e-14   5260.25 1 
  5181.10 2.4571e-14   5263.00 1 
  5183.80 2.4200e-14   5265.75 1 
  5186.51 2.4504e-14   5268.50 1 
  5189.22 2.4842e-14   5271.25 1 
  5191.93 2.5505e-14   5274.00 1 
  5194.63 2.5936e-14   5276.75 1 
  5197.34 2.5628e-14   5279.50 1 
  5200.05 2.6242e-14   5282.25 1 
  5202.75 2.6060e-14   5285.00 1 
  5205.46 2.4364e-14   5287.75 1 
  5208.17 2.4461e-14   5290.50 1 
  5210.88 2.4812e-14   5293.25 1 
  5213.58 2.4512e-14   5296.00 1 
  5216.29 2.4469e-14   5298.75 1 
  5219.00 2.4634e-14   5301.50 1 
  5221.71 2.4483e-14   5304.25 1 
  5224.41 2.3627e-14   5307.00 1 
  5227.12 2.4272e-14   5309.75 1 
  5229.83 2.4281e-14   5312.50 1 
  5232.53 2.4518e-14   5315.25 1 
  5235.24 2.5282e-14   5318.00 1 
  5237.95 2.5314e-14   5320.75 1 
  5240.66 2.5204e-14   5323.50 1 
  5243.36 2.5346e-14   5326.25 1 
  5246.07 2.5482e-14   5329.00 1 
  5248.78 2.5037e-14   5331.75 1 
  5251.48 2.5429e-14   5334.50 1 
  5254.19 2.6271e-14   5337.25 1 
  5256.90 2.5957e-14   5340.00 1 
  5259.61 2.5490e-14   5342.75 1 
  5262.31 2.5396e-14   5345.50 1 
  5265.02 2.4873e-14   5348.25 1 
  5267.73 2.4093e-14   5351.00 1 
  5270.43 2.3609e-14   5353.75 1 
  5273.14 2.5082e-14   5356.50 1 
  5275.85 2.5419e-14   5359.25 1 
  5278.56 2.4435e-14   5362.00 1 
  5281.26 2.4861e-14   5364.75 1 
  5283.97 2.4445e-14   5367.50 1 
  5286.68 2.4516e-14   5370.25 1 
  5289.39 2.5291e-14   5373.00 1 
  5292.09 2.6270e-14   5375.75 1 
  5294.80 2.6083e-14   5378.50 1 
  5297.51 2.4885e-14   5381.25 1 
  5300.21 2.5146e-14   5384.00 1 
  5302.92 2.5271e-14   5386.75 1 
  5305.63 2.5055e-14   5389.50 1 
  5308.34 2.4984e-14   5392.25 1 
  5311.04 2.4162e-14   5395.00 1 
  5313.75 2.4224e-14   5397.75 1 
  5316.46 2.4578e-14   5400.50 1 
  5319.16 2.4436e-14   5403.25 1 
  5321.87 2.4438e-14   5406.00 1 
  5324.58 2.4370e-14   5408.75 1 
  5327.29 2.4149e-14   5411.50 1 
  5329.99 2.5144e-14   5414.25 1 
  5332.70 2.5120e-14   5417.00 1 
  5335.41 2.4310e-14   5419.75 1 
  5338.12 2.3810e-14   5422.50 1 
  5340.82 2.3694e-14   5425.25 1 
  5343.53 2.4064e-14   5428.00 1 
  5346.24 2.3954e-14   5430.75 1 
  5348.94 2.4434e-14   5433.50 1 
  5351.65 2.4601e-14   5436.25 1 
  5354.36 2.4489e-14   5439.00 1 
  5357.07 2.5407e-14   5441.75 1 
  5359.77 2.5485e-14   5444.50 1 
  5362.48 2.4641e-14   5447.25 1 
  5365.19 2.5187e-14   5450.00 1 
  5367.89 2.4795e-14   5452.75 1 
  5370.60 2.4670e-14   5455.50 1 
  5373.31 2.4206e-14   5458.25 1 
  5376.02 2.4596e-14   5461.00 1 
  5378.72 2.5705e-14   5463.75 1 
  5381.43 2.5586e-14   5466.50 1 
  5384.14 2.5187e-14   5469.25 1 
  5386.84 2.4754e-14   5472.00 1 
  5389.55 2.4576e-14   5474.75 1 
  5392.26 2.5093e-14   5477.50 1 
  5394.97 2.3945e-14   5480.25 1 
  5397.67 2.2617e-14   5483.00 1 
  5400.38 2.3703e-14   5485.75 1 
  5403.09 2.4559e-14   5488.50 1 
  5405.80 2.3027e-14   5491.25 1 
  5408.50 2.2531e-14   5494.00 1 
  5411.21 2.3578e-14   5496.75 1 
  5413.92 2.4417e-14   5499.50 1 
  5416.62 2.5507e-14   5502.25 1 
  5419.33 2.5143e-14   5505.00 1 
  5422.04 2.4048e-14   5507.75 1 
  5424.75 2.3934e-14   5510.50 1 
  5427.45 2.3542e-14   5513.25 1 
  5430.16 2.3993e-14   5516.00 1 
  5432.87 2.4460e-14   5518.75 1 
  5435.57 2.3912e-14   5521.50 1 
  5438.28 2.4250e-14   5524.25 1 
  5440.99 2.4486e-14   5527.00 1 
  5443.70 2.4291e-14   5529.75 1 
  5446.40 2.3628e-14   5532.50 1 
  5449.11 2.3071e-14   5535.25 1 
  5451.82 2.4931e-14   5538.00 1 
  5454.52 2.4764e-14   5540.75 1 
  5457.23 2.3189e-14   5543.50 1 
  5459.94 2.2927e-14   5546.25 1 
  5462.65 2.3489e-14   5549.00 1 
  5465.35 2.3778e-14   5551.75 1 
  5468.06 2.2875e-14   5554.50 1 
  5470.77 2.1664e-14   5557.25 1 
  5473.48 2.3640e-14   5560.00 1 
  5476.18 2.3515e-14   5562.75 1 
  5478.89 2.3596e-14   5565.50 1 
  5481.60 2.3376e-14   5568.25 1 
  5484.30 2.3678e-14   5571.00 1 
  5487.01 2.4237e-14   5573.75 1 
  5489.72 2.4465e-14   5576.50 1 
  5492.43 2.4184e-14   5579.25 1 
  5495.13 2.4188e-14   5582.00 1 
  5497.84 2.4495e-14   5584.75 1 
  5500.55 2.3152e-14   5587.50 1 
  5503.25 2.4078e-14   5590.25 1 
  5505.96 2.2748e-14   5593.00 1 
  5508.67 2.4189e-14   5595.75 1 
  5511.38 2.3638e-14   5598.50 1 
  5514.08 2.2918e-14   5601.25 1 
  5516.79 2.3606e-14   5604.00 1 
  5519.50 2.3629e-14   5606.75 1 
  5522.20 2.4249e-14   5609.50 1 
  5524.91 2.3309e-14   5612.25 1 
  5527.62 2.3623e-14   5615.00 1 
  5530.33 2.3261e-14   5617.75 1 
  5533.03 2.3670e-14   5620.50 1 
  5535.74 2.4316e-14   5623.25 1 
  5538.45 2.4507e-14   5626.00 1 
  5541.16 2.4818e-14   5628.75 1 
  5543.86 2.3797e-14   5631.50 1 
  5546.57 2.3717e-14   5634.25 1 
  5549.28 2.3770e-14   5637.00 1 
  5551.98 2.4388e-14   5639.75 1 
  5554.69 2.3799e-14   5642.50 1 
  5557.40 2.4659e-14   5645.25 1 
  5560.11 2.3210e-14   5648.00 1 
  5562.81 2.3928e-14   5650.75 1 
  5565.52 2.3402e-14   5653.50 1 
  5568.23 2.3870e-14   5656.25 1 
  5570.93 2.3151e-14   5659.00 1 
  5573.64 2.3481e-14   5661.75 1 
  5576.35 2.3732e-14   5664.50 1 
  5579.06 2.3780e-14   5667.25 1 
  5581.76 2.3220e-14   5670.00 1 
  5584.47 2.1724e-14   5672.75 1 
  5587.18 2.3050e-14   5675.50 1 
  5589.89 2.2611e-14   5678.25 1 
  5592.59 2.3173e-14   5681.00 1 
  5595.30 2.3271e-14   5683.75 1 
  5598.01 2.4116e-14   5686.50 1 
  5600.71 2.3309e-14   5689.25 1 
  5603.42 2.4024e-14   5692.00 1 
  5606.13 2.2411e-14   5694.75 1 
  5608.84 2.3227e-14   5697.50 1 
  5611.54 2.3213e-14   5700.25 1 
  5614.25 2.2410e-14   5703.00 1 
  5616.96 2.3401e-14   5705.75 1 
  5619.66 2.3567e-14   5708.50 1 
  5622.37 2.4314e-14   5711.25 1 
  5625.08 2.2121e-14   5714.00 1 
  5627.79 2.2731e-14   5716.75 1 
  5630.49 2.2689e-14   5719.50 1 
  5633.20 2.3353e-14   5722.25 1 
  5635.91 2.3950e-14   5725.00 1 
  5638.61 2.1821e-14   5727.75 1 
  5641.32 2.4148e-14   5730.50 1 
  5644.03 2.3321e-14   5733.25 1 
  5646.74 2.2704e-14   5736.00 1 
  5649.44 2.2288e-14   5738.75 1 
  5652.15 2.3598e-14   5741.50 1 
  5654.86 2.2935e-14   5744.25 1 
  5657.57 2.2657e-14   5747.00 1 
  5660.27 2.2898e-14   5749.75 1 
  5662.98 2.3862e-14   5752.50 1 
  5665.69 2.3111e-14   5755.25 1 
  5668.39 2.3134e-14   5758.00 1 
  5671.10 2.3454e-14   5760.75 1 
  5673.81 2.3703e-14   5763.50 1 
  5676.52 2.4213e-14   5766.25 1 
  5679.22 2.2593e-14   5769.00 1 
  5681.93 2.1707e-14   5771.75 1 
  5684.64 2.2576e-14   5774.50 1 
  5687.34 2.2620e-14   5777.25 1 
  5690.05 2.2543e-14   5780.00 1 
  5692.76 2.3728e-14   5782.75 1 
  5695.47 2.4429e-14   5785.50 1 
  5698.17 2.3320e-14   5788.25 1 
  5700.88 2.3501e-14   5791.00 1 
  5703.59 2.2617e-14   5793.75 1 
  5706.29 2.1027e-14   5796.50 1 
  5709.00 2.1478e-14   5799.25 1 
  5711.71 2.1414e-14   5802.00 1 
  5714.42 2.2596e-14   5804.75 1 
  5717.12 2.2181e-14   5807.50 1 
  5719.83 2.3180e-14   5810.25 1 
  5722.54 2.3391e-14   5813.00 1 
  5725.25 2.3050e-14   5815.75 1 
  5727.95 2.2572e-14   5818.50 1 
  5730.66 2.4061e-14   5821.25 1 
  5733.37 2.3547e-14   5824.00 1 
  5736.07 2.2899e-14   5826.75 1 
  5738.78 2.2343e-14   5829.50 1 
  5741.49 2.2256e-14   5832.25 1 
  5744.20 2.3729e-14   5835.00 1 
  5746.90 2.3719e-14   5837.75 1 
  5749.61 2.2659e-14   5840.50 1 
  5752.32 2.2160e-14   5843.25 1 
  5755.02 2.3595e-14   5846.00 1 
  5757.73 2.3645e-14   5848.75 1 
  5760.44 2.3222e-14   5851.50 1 
  5763.15 2.1919e-14   5854.25 1 
  5765.85 2.3014e-14   5857.00 1 
  5768.56 2.2421e-14   5859.75 1 
  5771.27 2.3354e-14   5862.50 1 
  5773.98 2.3071e-14   5865.25 1 
  5776.68 2.1705e-14   5868.00 1 
  5779.39 2.2425e-14   5870.75 1 
  5782.10 2.2624e-14   5873.50 1 
  5784.80 2.2643e-14   5876.25 1 
  5787.51 2.2405e-14   5879.00 1 
  5790.22 2.2636e-14   5881.75 1 
  5792.93 2.2507e-14   5884.50 1 
  5795.63 2.2966e-14   5887.25 1 
  5798.34 2.2916e-14   5890.00 1 
  5801.05 2.2074e-14   5892.75 1 
  5803.75 2.2018e-14   5895.50 1 
  5806.46 2.2906e-14   5898.25 1 
  5809.17 2.2203e-14   5901.00 1 
  5811.88 2.3161e-14   5903.75 1 
  5814.58 2.2976e-14   5906.50 1 
  5817.29 2.2661e-14   5909.25 1 
  5820.00 2.2782e-14   5912.00 1 
  5822.70 2.2485e-14   5914.75 1 
  5825.41 2.2538e-14   5917.50 1 
  5828.12 2.2535e-14   5920.25 1 
  5830.83 2.2810e-14   5923.00 1 
  5833.53 2.2638e-14   5925.75 1 
  5836.24 2.1335e-14   5928.50 1 
  5838.95 2.2209e-14   5931.25 1 
  5841.66 2.2215e-14   5934.00 1 
  5844.36 2.1421e-14   5936.75 1 
  5847.07 2.1090e-14   5939.50 1 
  5849.78 2.1562e-14   5942.25 1 
  5852.48 2.1397e-14   5945.00 1 
  5855.19 2.0258e-14   5947.75 1 
  5857.90 2.1484e-14   5950.50 1 
  5860.61 2.1931e-14   5953.25 1 
  5863.31 2.3472e-14   5956.00 1 
  5866.02 2.3258e-14   5958.75 1 
  5868.73 2.3185e-14   5961.50 1 
  5871.43 2.6608e-14   5964.25 1 
  5874.14 2.9131e-14   5967.00 1 
  5876.85 2.8373e-14   5969.75 1 
  5879.56 2.6212e-14   5972.50 1 
  5882.26 2.4237e-14   5975.25 1 
  5884.97 2.3103e-14   5978.00 1 
  5887.68 2.0670e-14   5980.75 1 
  5890.38 1.9843e-14   5983.50 1 
  5893.09 2.0808e-14   5986.25 1 
  5895.80 2.0754e-14   5989.00 1 
  5898.51 2.0913e-14   5991.75 1 
  5901.21 2.0421e-14   5994.50 1 
  5903.92 2.0406e-14   5997.25 1 
  5906.63 2.1303e-14   6000.00 1 
  5909.34 2.1977e-14   6002.75 1 
  5912.04 2.1601e-14   6005.50 1 
  5914.75 2.1122e-14   6008.25 1 
  5917.46 2.0517e-14   6011.00 1 
  5920.16 2.0582e-14   6013.75 1 
  5922.87 2.2254e-14   6016.50 1 
  5925.58 2.1879e-14   6019.25 1 
  5928.29 2.0870e-14   6022.00 1 
  5930.99 2.1687e-14   6024.75 1 
  5933.70 2.0989e-14   6027.50 1 
  5936.41 2.0219e-14   6030.25 1 
  5939.11 2.1348e-14   6033.00 1 
  5941.82 2.1759e-14   6035.75 1 
  5944.53 2.1286e-14   6038.50 1 
  5947.24 2.1317e-14   6041.25 1 
  5949.94 2.1206e-14   6044.00 1 
  5952.65 2.2347e-14   6046.75 1 
  5955.36 2.1283e-14   6049.50 1 
  5958.06 2.1318e-14   6052.25 1 
  5960.77 2.1474e-14   6055.00 1 
  5963.48 2.1394e-14   6057.75 1 
  5966.19 2.0910e-14   6060.50 1 
  5968.89 2.2419e-14   6063.25 1 
  5971.60 2.1751e-14   6066.00 1 
  5974.31 2.1444e-14   6068.75 1 
  5977.02 2.1386e-14   6071.50 1 
  5979.72 2.0599e-14   6074.25 1 
  5982.43 2.1106e-14   6077.00 1 
  5985.14 2.0838e-14   6079.75 1 
  5987.84 2.1195e-14   6082.50 1 
  5990.55 2.1548e-14   6085.25 1 
  5993.26 2.0768e-14   6088.00 1 
  5995.97 2.0421e-14   6090.75 1 
  5998.67 2.0175e-14   6093.50 1 
  6001.38 2.0502e-14   6096.25 1 
  6004.09 2.0102e-14   6099.00 1 
  6006.79 2.0130e-14   6101.75 1 
  6009.50 2.1196e-14   6104.50 1 
  6012.21 2.1111e-14   6107.25 1 
  6014.92 2.1430e-14   6110.00 1 
  6017.62 2.1185e-14   6112.75 1 
  6020.33 2.1512e-14   6115.50 1 
  6023.04 2.1632e-14   6118.25 1 
  6025.75 2.1736e-14   6121.00 1 
  6028.45 2.0685e-14   6123.75 1 
  6031.16 2.1644e-14   6126.50 1 
  6033.87 2.0896e-14   6129.25 1 
  6036.57 2.0362e-14   6132.00 1 
  6039.28 2.0714e-14   6134.75 1 
  6041.99 2.0469e-14   6137.50 1 
  6044.70 2.2622e-14   6140.25 1 
  6047.40 2.0700e-14   6143.00 1 
  6050.11 2.0290e-14   6145.75 1 
  6052.82 1.9642e-14   6148.50 1 
  6055.52 2.0826e-14   6151.25 1 
  6058.23 2.1570e-14   6154.00 1 
  6060.94 2.0814e-14   6156.75 1 
  6063.65 2.1024e-14   6159.50 1 
  6066.35 2.0435e-14   6162.25 1 
  6069.06 2.0720e-14   6165.00 1 
  6071.77 2.1687e-14   6167.75 1 
  6074.47 2.1767e-14   6170.50 1 
  6077.18 2.0726e-14   6173.25 1 
  6079.89 2.1232e-14   6176.00 1 
  6082.60 2.0829e-14   6178.75 1 
  6085.30 2.0798e-14   6181.50 1 
  6088.01 2.1175e-14   6184.25 1 
  6090.72 2.0666e-14   6187.00 1 
  6093.43 2.0451e-14   6189.75 1 
  6096.13 1.9929e-14   6192.50 1 
  6098.84 2.0456e-14   6195.25 1 
  6101.55 2.0040e-14   6198.00 1 
  6104.25 1.9939e-14   6200.75 1 
  6106.96 1.9543e-14   6203.50 1 
  6109.67 2.0725e-14   6206.25 1 
  6112.38 2.0755e-14   6209.00 1 
  6115.08 2.0845e-14   6211.75 1 
  6117.79 1.9268e-14   6214.50 1 
  6120.50 1.9268e-14   6217.25 1 
  6123.20 2.0111e-14   6220.00 1 
  6125.91 1.9653e-14   6222.75 1 
  6128.62 2.0326e-14   6225.50 1 
  6131.33 2.0579e-14   6228.25 1 
  6134.03 1.9721e-14   6231.00 1 
  6136.74 2.1568e-14   6233.75 1 
  6139.45 2.1175e-14   6236.50 1 
  6142.15 2.0675e-14   6239.25 1 
  6144.86 2.0117e-14   6242.00 1 
  6147.57 1.9390e-14   6244.75 1 
  6150.28 1.9736e-14   6247.50 1 
  6152.98 2.0478e-14   6250.25 1 
  6155.69 2.1024e-14   6253.00 1 
  6158.40 2.0039e-14   6255.75 1 
  6161.11 2.0660e-14   6258.50 1 
  6163.81 1.9885e-14   6261.25 1 
  6166.52 1.9641e-14   6264.00 1 
  6169.23 2.0055e-14   6266.75 1 
  6171.93 2.0214e-14   6269.50 1 
  6174.64 2.0845e-14   6272.25 1 
  6177.35 2.0111e-14   6275.00 1 
  6180.06 1.9647e-14   6277.75 1 
  6182.76 2.0530e-14   6280.50 1 
  6185.47 1.9535e-14   6283.25 1 
  6188.18 2.0527e-14   6286.00 1 
  6190.88 1.9822e-14   6288.75 1 
  6193.59 2.1747e-14   6291.50 1 
  6196.30 2.0871e-14   6294.25 1 
  6199.01 1.9432e-14   6297.00 1 
  6201.71 2.0282e-14   6299.75 1 
  6204.42 1.9520e-14   6302.50 1 
  6207.13 2.0381e-14   6305.25 1 
  6209.83 2.0764e-14   6308.00 1 
  6212.54 2.0940e-14   6310.75 1 
  6215.25 2.1445e-14   6313.50 1 
  6217.96 1.9040e-14   6316.25 1 
  6220.66 1.9224e-14   6319.00 1 
  6223.37 1.9036e-14   6321.75 1 
  6226.08 1.9481e-14   6324.50 1 
  6228.79 2.0396e-14   6327.25 1 
  6231.49 1.9062e-14   6330.00 1 
  6234.20 1.8486e-14   6332.75 1 
  6236.91 1.9615e-14   6335.50 1 
  6239.61 2.0136e-14   6338.25 1 
  6242.32 1.9764e-14   6341.00 1 
  6245.03 1.9655e-14   6343.75 1 
  6247.74 1.9138e-14   6346.50 1 
  6250.44 1.9078e-14   6349.25 1 
  6253.15 1.9096e-14   6352.00 1 
  6255.86 2.0080e-14   6354.75 1 
  6258.56 1.9871e-14   6357.50 1 
  6261.27 1.9493e-14   6360.25 1 
  6263.98 2.0463e-14   6363.00 1 
  6266.69 2.0242e-14   6365.75 1 
  6269.39 2.0204e-14   6368.50 1 
  6272.10 1.8961e-14   6371.25 1 
  6274.81 1.8694e-14   6374.00 1 
  6277.52 2.1081e-14   6376.75 1 
  6280.22 1.9398e-14   6379.50 1 
  6282.93 1.9018e-14   6382.25 1 
  6285.64 1.9312e-14   6385.00 1 
  6288.34 1.8660e-14   6387.75 1 
  6291.05 1.9312e-14   6390.50 1 
  6293.76 2.2142e-14   6393.25 1 
  6296.47 2.6454e-14   6396.00 1 
  6299.17 2.9048e-14   6398.75 1 
  6301.88 2.8476e-14   6401.50 1 
  6304.59 2.4518e-14   6404.25 1 
  6307.29 2.2389e-14   6407.00 1 
  6310.00 2.0478e-14   6409.75 1 
  6312.71 2.0700e-14   6412.50 1 
  6315.42 2.0310e-14   6415.25 1 
  6318.12 2.0310e-14   6418.00 1 
  6320.83 2.0035e-14   6420.75 1 
  6323.54 1.9705e-14   6423.50 1 
  6326.24 1.9190e-14   6426.25 1 
  6328.95 1.9712e-14   6429.00 1 
  6331.66 1.8747e-14   6431.75 1 
  6334.37 2.1062e-14   6434.50 1 
  6337.07 1.9707e-14   6437.25 1 
  6339.78 1.9217e-14   6440.00 1 
  6342.49 1.9930e-14   6442.75 1 
  6345.20 2.0968e-14   6445.50 1 
  6347.90 2.0442e-14   6448.25 1 
  6350.61 1.9243e-14   6451.00 1 
  6353.32 2.0557e-14   6453.75 1 
  6356.02 1.9636e-14   6456.50 1 
  6358.73 2.0017e-14   6459.25 1 
  6361.44 2.2730e-14   6462.00 1 
  6364.15 2.4303e-14   6464.75 1 
  6366.85 2.3103e-14   6467.50 1 
  6369.56 2.1565e-14   6470.25 1 
  6372.27 1.9398e-14   6473.00 1 
  6374.97 1.7646e-14   6475.75 1 
  6377.68 1.7354e-14   6478.50 1 
  6380.39 1.9073e-14   6481.25 1 
  6383.10 1.9824e-14   6484.00 1 
  6385.80 2.0064e-14   6486.75 1 
  6388.51 2.0621e-14   6489.50 1 
  6391.22 1.9114e-14   6492.25 1 
  6393.92 1.9046e-14   6495.00 1 
  6396.63 1.9881e-14   6497.75 1 
  6399.34 1.9632e-14   6500.50 1 
  6402.05 1.9350e-14   6503.25 1 
  6404.75 1.9703e-14   6506.00 1 
  6407.46 1.9693e-14   6508.75 1 
  6410.17 1.8973e-14   6511.50 1 
  6412.88 1.9239e-14   6514.25 1 
  6415.58 1.8617e-14   6517.00 1 
  6418.29 1.8853e-14   6519.75 1 
  6421.00 1.8701e-14   6522.50 1 
  6423.70 1.9605e-14   6525.25 1 
  6426.41 1.9164e-14   6528.00 1 
  6429.12 1.8714e-14   6530.75 1 
  6431.83 1.8753e-14   6533.50 1 
  6434.53 2.0125e-14   6536.25 1 
  6437.24 2.0008e-14   6539.00 1 
  6439.95 1.9193e-14   6541.75 1 
  6442.65 1.9630e-14   6544.50 1 
  6445.36 1.9945e-14   6547.25 1 
  6448.07 1.8520e-14   6550.00 1 
  6450.78 1.8844e-14   6552.75 1 
  6453.48 1.7679e-14   6555.50 1 
  6456.19 1.8090e-14   6558.25 1 
  6458.90 1.8983e-14   6561.00 1 
  6461.60 1.9237e-14   6563.75 1 
  6464.31 1.8553e-14   6566.50 1 
  6467.02 1.8934e-14   6569.25 1 
  6469.73 1.9314e-14   6572.00 1 
  6472.43 1.8732e-14   6574.75 1 
  6475.14 1.9043e-14   6577.50 1 
  6477.85 1.8495e-14   6580.25 1 
  6480.56 1.8414e-14   6583.00 1 
  6483.26 1.8292e-14   6585.75 1 
  6485.97 1.9319e-14   6588.50 1 
  6488.68 2.0148e-14   6591.25 1 
  6491.38 1.8399e-14   6594.00 1 
  6494.09 1.8693e-14   6596.75 1 
  6496.80 1.8056e-14   6599.50 1 
  6499.51 1.7969e-14   6602.25 1 
  6502.21 1.7549e-14   6605.00 1 
  6504.92 1.8661e-14   6607.75 1 
  6507.63 1.9546e-14   6610.50 1 
  6510.33 1.9427e-14   6613.25 1 
  6513.04 1.9213e-14   6616.00 1 
  6515.75 1.8465e-14   6618.75 1 
  6518.46 1.8517e-14   6621.50 1 
  6521.16 1.9462e-14   6624.25 1 
  6523.87 1.9468e-14   6627.00 1 
  6526.58 1.9895e-14   6629.75 1 
  6529.29 2.0740e-14   6632.50 1 
  6531.99 1.8283e-14   6635.25 1 
  6534.70 2.0318e-14   6638.00 1 
  6537.41 1.9654e-14   6640.75 1 
  6540.11 2.1917e-14   6643.50 1 
  6542.82 2.4731e-14   6646.25 1 
  6545.53 3.0268e-14   6649.00 1 
  6548.24 3.2026e-14   6651.75 1 
  6550.94 3.2585e-14   6654.50 1 
  6553.65 4.4522e-14   6657.25 1 
  6556.36 8.9344e-14   6660.00 1 
  6559.06 1.7573e-13   6662.75 1 
  6561.77 2.3586e-13   6665.50 1 
  6564.48 2.1571e-13   6668.25 1 
  6567.19 1.4187e-13   6671.00 1 
  6569.89 7.4471e-14   6673.75 1 
  6572.60 3.7878e-14   6676.50 1 
  6575.31 2.9694e-14   6679.25 1 
  6578.01 3.6212e-14   6682.00 1 
  6580.72 4.8511e-14   6684.75 1 
  6583.43 5.2749e-14   6687.50 1 
  6586.14 4.6322e-14   6690.25 1 
  6588.84 3.1916e-14   6693.00 1 
  6591.55 2.3751e-14   6695.75 1 
  6594.26 2.0291e-14   6698.50 1 
  6596.97 1.8800e-14   6701.25 1 
  6599.67 1.9900e-14   6704.00 1 
  6602.38 2.0404e-14   6706.75 1 
  6605.09 2.0167e-14   6709.50 1 
  6607.79 1.8141e-14   6712.25 1 
  6610.50 1.9280e-14   6715.00 1 
  6613.21 1.9178e-14   6717.75 1 
  6615.92 1.9527e-14   6720.50 1 
  6618.62 1.8393e-14   6723.25 1 
  6621.33 1.8452e-14   6726.00 1 
  6624.04 1.7748e-14   6728.75 1 
  6626.74 1.8013e-14   6731.50 1 
  6629.45 1.9336e-14   6734.25 1 
  6632.16 1.9243e-14   6737.00 1 
  6634.87 2.0048e-14   6739.75 1 
  6637.57 1.9225e-14   6742.50 1 
  6640.28 1.8659e-14   6745.25 1 
  6642.99 1.8134e-14   6748.00 1 
  6645.69 1.8585e-14   6750.75 1 
  6648.40 1.8977e-14   6753.50 1 
  6651.11 1.7925e-14   6756.25 1 
  6653.82 1.8668e-14   6759.00 1 
  6656.52 1.8677e-14   6761.75 1 
  6659.23 1.8295e-14   6764.50 1 
  6661.94 1.8784e-14   6767.25 1 
  6664.65 1.8378e-14   6770.00 1 
  6667.35 1.9789e-14   6772.75 1 
  6670.06 1.8876e-14   6775.50 1 
  6672.77 1.9273e-14   6778.25 1 
  6675.47 2.0967e-14   6781.00 1 
  6678.18 2.0469e-14   6783.75 1 
  6680.89 1.9598e-14   6786.50 1 
  6683.60 2.0508e-14   6789.25 1 
  6686.30 1.8794e-14   6792.00 1 
  6689.01 1.8383e-14   6794.75 1 
  6691.72 1.8466e-14   6797.50 1 
  6694.42 1.8387e-14   6800.25 1 
  6697.13 1.7739e-14   6803.00 1 
  6699.84 1.8651e-14   6805.75 1 
  6702.55 1.8063e-14   6808.50 1 
  6705.25 1.8997e-14   6811.25 1 
  6707.96 2.1628e-14   6814.00 1 
  6710.67 3.4084e-14   6816.75 1 
  6713.37 4.8821e-14   6819.50 1 
  6716.08 5.6246e-14   6822.25 1 
  6718.79 5.0692e-14   6825.00 1 
  6721.50 4.1075e-14   6827.75 1 
  6732.69 1.8528e-14   6839.12 0 
  6748.21 1.8354e-14   6854.88 0 
  6763.76 1.8477e-14   6870.68 0 
  6779.36 1.8388e-14   6886.52 0 
  6794.98 1.8342e-14   6902.40 0 
  6810.65 1.8338e-14   6918.31 0 
  6826.35 1.8292e-14   6934.26 0 
  6842.08 1.8414e-14   6950.24 0 
  6857.86 1.8242e-14   6966.26 0 
  6873.67 1.7822e-14   6982.33 0 
  6889.51 1.7736e-14   6998.42 0 
  6905.39 1.7773e-14   7014.55 0 
  6921.31 1.7810e-14   7030.72 0 
  6937.27 1.8013e-14   7046.93 0 
  6953.26 1.7967e-14   7063.18 0 
  6969.29 1.8004e-14   7079.46 0 
  6985.35 1.7111e-14   7095.78 0 
  7001.46 1.7831e-14   7112.14 0 
  7017.60 1.7704e-14   7128.53 0 
  7033.77 1.7457e-14   7144.96 0 
  7049.99 1.8067e-14   7161.43 0 
  7066.24 1.7210e-14   7177.94 0 
  7082.53 1.7486e-14   7194.49 0 
  7098.86 1.6849e-14   7211.08 0 
  7115.22 1.6884e-14   7227.70 0 
  7131.62 1.6764e-14   7244.36 0 
  7148.06 1.6683e-14   7261.06 0 
  7164.54 1.6795e-14   7277.80 0 
  7181.06 1.6371e-14   7294.57 0 
  7197.61 1.5775e-14   7311.39 0 
  7214.20 1.5735e-14   7328.25 0 
  7230.83 1.6473e-14   7345.14 0 
  7247.50 1.6318e-14   7362.07 0 
  7264.21 1.6849e-14   7379.04 0 
  7280.95 1.6310e-14   7396.05 0 
  7297.74 1.5680e-14   7413.10 0 
  7314.56 1.6378e-14   7430.19 0 
  7331.42 1.6602e-14   7447.32 0 
  7348.32 1.7181e-14   7464.49 0 
  7365.27 1.6442e-14   7481.70 0 
  7382.24 1.6898e-14   7498.94 0 
  7399.26 1.6586e-14   7516.23 0 
  7416.32 1.6543e-14   7533.56 0 
  7433.42 1.6770e-14   7550.92 0 
  7450.55 1.6459e-14   7568.33 0 
  7467.73 1.6342e-14   7585.78 0 
  7484.94 1.6680e-14   7603.26 0 
  7502.19 1.6073e-14   7620.79 0 
  7519.49 1.6330e-14   7638.36 0 
  7536.83 1.6630e-14   7655.97 0 
  7554.20 1.6435e-14   7673.61 0 
  7571.61 1.6431e-14   7691.30 0 
  7589.07 1.6427e-14   7709.04 0 
  7606.56 1.6012e-14   7726.81 0 
  7624.10 1.6045e-14   7744.62 0 
  7641.67 1.5931e-14   7762.47 0 
  7659.29 1.5890e-14   7780.37 0 
  7676.94 1.4928e-14   7798.30 0 
  7694.64 1.5520e-14   7816.28 0 
  7712.38 1.5339e-14   7834.30 0 
  7730.16 1.5513e-14   7852.36 0 
  7747.98 1.5437e-14   7870.46 0 
  7765.84 1.5292e-14   7888.60 0 
  7783.74 1.4735e-14   7906.79 0 
  7801.68 1.5284e-14   7925.01 0 
  7819.67 1.5280e-14   7943.28 0 
  7837.70 1.5276e-14   7961.59 0 
  7855.76 1.5485e-14   7979.95 0 
  7873.87 1.5516e-14   7998.34 0 
  7892.02 1.5229e-14   8016.78 0 
  7910.22 1.5016e-14   8035.26 0 
  7928.45 1.4705e-14   8053.78 0 
  7946.73 1.4366e-14   8072.35 0 
  7965.05 1.4529e-14   8090.96 0 
  7983.41 1.4897e-14   8109.61 0 
  8001.81 1.4622e-14   8128.31 0 
  8020.26 1.4753e-14   8147.04 0 
  8038.75 1.4749e-14   8165.82 0 
  8057.28 1.4610e-14   8184.65 0 
  8075.85 1.4506e-14   8203.52 0 
  8094.47 1.4435e-14   8222.43 0 
  8113.13 1.4431e-14   8241.38 0 
  8131.83 1.4628e-14   8260.38 0 
  8150.58 1.4063e-14   8279.42 0 
  8169.36 1.3676e-14   8298.51 0 
  8188.20 1.3641e-14   8317.64 0 
  8207.07 1.3574e-14   8336.81 0 
  8225.99 1.4276e-14   8356.03 0 
  8244.96 1.4206e-14   8375.29 0 
  8263.96 1.3879e-14   8394.60 0 
  8283.01 1.3497e-14   8413.95 0 
  8302.11 1.3840e-14   8433.35 0 
  8321.25 1.3868e-14   8452.79 0 
  8340.43 1.3642e-14   8472.27 0 
  8359.65 1.4183e-14   8491.80 0 
  8378.93 1.3952e-14   8511.38 0 
  8398.24 1.3413e-14   8531.00 0 
  8417.60 1.3977e-14   8550.67 0 
  8437.01 1.3940e-14   8570.38 0 
  8456.46 1.3309e-14   8590.14 0 
  8475.95 1.2854e-14   8609.94 0 
  8495.49 1.3897e-14   8629.79 0 
  8515.07 1.3514e-14   8649.68 0 
  8534.70 1.3635e-14   8669.62 0 
  8554.37 1.1208e-14   8689.60 0 
  8574.10 1.3785e-14   8709.64 0 
  8593.86 1.3406e-14   8729.71 0 
  8613.67 1.3007e-14   8749.84 0 
  8633.53 1.3647e-14   8770.01 0 
  8653.43 1.3425e-14   8790.23 0 
  8673.38 9.8354e-15   8810.49 0 
  8693.38 1.2902e-14   8830.80 0 
  8713.41 1.3229e-14   8851.16 0 
  8733.50 1.3596e-14   8871.56 0 
  8753.63 1.2714e-14   8892.01 0 
  8773.81 1.2887e-14   8912.51 0 
  8794.04 1.3429e-14   8933.05 0 
  8814.31 1.2414e-14   8953.65 0 
  8834.63 1.2846e-14   8974.29 0 
  8855.00 1.2872e-14   8994.98 0 
  8875.41 1.1495e-14   9015.71 0 
  8895.87 1.2776e-14   9036.50 0 
  8916.38 1.2980e-14   9057.33 0 
  8936.93 1.2651e-14   9078.20 0 
  8957.53 1.2618e-14   9099.13 0 
  8978.18 1.2586e-14   9120.11 0 
  8998.88 1.0734e-14   9141.13 0 
  9019.62 1.0930e-14   9162.20 0 
  9040.42 1.2749e-14   9183.33 0 
  9061.25 1.3133e-14   9204.50 0 
  9082.14 1.2224e-14   9225.71 0 
  9103.08 1.2419e-14   9246.98 0 
  9124.07 1.2881e-14   9268.30 0 
  9145.10 1.1477e-14   9289.66 0 
  9166.18 1.1368e-14   9311.08 0 
  9187.31 1.1845e-14   9332.54 0 
  9208.49 1.2230e-14   9354.06 0 
  9229.71 1.1784e-14   9375.62 0 
  9250.99 1.1726e-14   9397.23 0 
  9272.32 1.1968e-14   9418.90 0 
  9293.69 1.1909e-14   9440.61 0 
  9315.12 1.2239e-14   9462.37 0 
  9336.59 1.2207e-14   9484.18 0 
  9358.11 1.2175e-14   9506.05 0 
  9379.69 1.2032e-14   9527.96 0 
  9401.31 1.1863e-14   9549.93 0 
  9422.98 1.2108e-14   9571.94 0 
  9444.71 1.1938e-14   9594.01 0 
  9466.48 1.2072e-14   9616.12 0 
  9488.30 1.2040e-14   9638.29 0 
  9510.17 1.1763e-14   9660.51 0 
  9532.10 1.1571e-14   9682.78 0 
  9554.07 1.0845e-14   9705.10 0 
  9576.09 1.1510e-14   9727.47 0 
  9598.17 1.1856e-14   9749.90 0 
  9620.29 1.1744e-14   9772.37 0 
  9642.47 1.1659e-14   9794.90 0 
  9664.70 1.1602e-14   9817.48 0 
  9686.98 1.1705e-14   9840.11 0 
  9709.31 1.1567e-14   9862.79 0 
  9731.69 1.1484e-14   9885.53 0 
  9754.13 1.1401e-14   9908.32 0 
  9776.61 1.1424e-14   9931.16 0 
  9799.15 1.1289e-14   9954.05 0 
  9821.74 1.1337e-14   9977.00 0 
  9844.38 1.1360e-14  10000.00 0 
  9867.07 1.1278e-14  10023.05 0 
  9889.82 1.1248e-14  10046.15 0 
  9912.61 1.1193e-14  10069.31 0 
  9935.47 1.1240e-14  10092.53 0 
  9958.37 1.1211e-14  10115.80 0 
  9981.33 1.1207e-14  10139.12 0 
 10027.40 1.0869e-14  10185.91 0 
 10073.69 1.0639e-14  10232.94 0 
 10120.19 1.0980e-14  10280.17 0 
 10166.89 1.0872e-14  10327.61 0 
 10213.82 1.0864e-14  10375.28 0 
 10284.62 1.0853e-14  10447.20 0 
 10308.33 1.0774e-14  10471.29 0 
 10499.97 1.0355e-14  10665.96 0 
 10695.18 9.8841e-15  10864.25 0 
 10894.03 9.3097e-15  11066.24 0 
 11096.56 8.9937e-15  11271.98 0 
 11302.86 8.7687e-15  11481.54 0 
 11512.99 8.6684e-15  11694.99 0 
 11700.06 8.4127e-15  11885.02 0 
 11890.17 8.1084e-15  12078.13 0 
 12111.24 7.9239e-15  12302.69 0 
 12308.03 7.7614e-15  12502.59 0 
 12508.02 7.5151e-15  12705.74 0 
 12711.25 7.3103e-15  12912.19 0 
 12888.09 7.1111e-15  13091.82 0 
 13097.50 6.9653e-15  13304.55 0 
 13310.32 6.7443e-15  13520.73 0 
 13495.48 6.5756e-15  13708.82 0 
 13714.77 6.4260e-15  13931.57 0 
 13905.56 6.2078e-15  14125.38 0 
 14099.01 5.9421e-15  14321.88 0 
 14295.14 5.8068e-15  14521.12 0 
 14494.01 5.7801e-15  14723.13 0 
 14695.63 5.6097e-15  14927.94 0 
 14900.07 5.6226e-15  15135.61 0 
 15107.35 5.5968e-15  15346.17 0 
 15317.51 5.6356e-15  15559.65 0 
 15494.89 5.5968e-15  15739.83 0 
 15710.44 5.4442e-15  15958.79 0 
 15892.37 5.2112e-15  16143.59 0 
 16113.45 5.2352e-15  16368.17 0 
 16300.02 5.2112e-15  16557.70 0 
 16488.77 5.1043e-15  16749.43 0 
 16718.16 5.0692e-15  16982.44 0 
 16911.75 4.9767e-15  17179.09 0 
 17107.56 4.8971e-15  17378.00 0 
 17305.66 4.6875e-15  17579.23 0 
 17506.06 4.5597e-15  17782.79 0 
 17708.77 4.3746e-15  17988.71 0 
 17913.84 4.2067e-15  18197.02 0 
 18079.58 3.9989e-15  18365.38 0 
 18288.94 3.8899e-15  18578.05 0 
 18500.72 3.7665e-15  18793.18 0 
 18714.93 3.5804e-15  19010.77 0 
 18888.10 3.4989e-15  19186.69 0 
 19106.82 3.4509e-15  19408.86 0 
 19283.60 3.3492e-15  19588.44 0 
 19506.90 3.2132e-15  19815.27 0 
 19687.41 3.1256e-15  19998.62 0 
 19915.38 3.0335e-15  20230.20 0 
 20099.64 2.9850e-15  20417.38 0 
 20285.63 2.8836e-15  20606.30 0 
 20520.51 2.8506e-15  20844.90 0 
 20710.39 2.7793e-15  21037.78 0 
 20902.03 2.7160e-15  21232.45 0 
 21095.42 2.6726e-15  21428.90 0 
 21290.63 2.6178e-15  21627.19 0 
 21487.63 2.5641e-15  21827.31 0 
 21686.44 2.4771e-15  22029.26 0 
 21887.11 2.4375e-15  22233.11 0 
 22089.62 2.3765e-15  22438.81 0 
 22294.02 2.3117e-15  22646.44 0 
 22500.31 2.2591e-15  22856.00 0 
 22708.49 2.2014e-15  23067.47 0 
 22918.62 1.9860e-15  23280.92 0 
 23077.47 1.9744e-15  23442.28 0 
 23291.02 1.7446e-15  23659.20 0 
 23506.51 1.6404e-15  23878.10 0 
 23724.02 1.6603e-15  24099.05 0 
 23888.48 1.5297e-15  24266.11 0 
 24109.51 1.4751e-15  24490.63 0 
 24276.64 1.4630e-15  24660.40 0 
 24501.25 1.3629e-15  24888.57 0 
 24727.97 1.3448e-15  25118.87 0 
 24899.36 1.1914e-15  25292.97 0 
 25071.97 1.1843e-15  25468.31 0 
 25303.94 1.1875e-15  25703.95 0 
 25479.36 1.1749e-15  25882.13 0 
 25630.14 1.1624e-15  26035.30 2 
 25725.43 1.1367e-15  26132.10 2 
 25820.63 1.1349e-15  26228.80 2 
 25915.92 1.1305e-15  26325.60 2 
 26011.22 1.1664e-15  26422.40 2 
 26106.41 1.2461e-15  26519.10 2 
 26201.70 1.2576e-15  26615.90 2 
 26296.90 1.2192e-15  26712.60 2 
 26392.19 1.1708e-15  26809.40 2 
 26487.49 1.1350e-15  26906.20 2 
 26582.68 1.1237e-15  27002.90 2 
 26677.97 1.0989e-15  27099.70 2 
 26773.27 1.0865e-15  27196.50 2 
 26868.46 1.0545e-15  27293.20 2 
 26963.76 1.0396e-15  27390.00 2 
 27058.95 1.0183e-15  27486.70 2 
 27154.24 1.0122e-15  27583.50 2 
 27249.54 1.0058e-15  27680.30 2 
 27344.73 1.0120e-15  27777.00 2 
 27440.03 1.0086e-15  27873.80 2 
 27535.32 1.0112e-15  27970.60 2 
 27630.52 1.0018e-15  28067.30 2 
 27725.81 9.9422e-16  28164.10 2 
 27821.01 9.9000e-16  28260.80 2 
 27916.30 9.9977e-16  28357.60 2 
 28011.59 1.0045e-15  28454.40 2 
 28106.79 9.9072e-16  28551.10 2 
 28202.08 9.6930e-16  28647.90 2 
 28297.37 9.6116e-16  28744.70 2 
 28392.57 9.3541e-16  28841.40 2 
 28487.87 9.0131e-16  28938.20 2 
 28583.06 8.7349e-16  29034.90 2 
 28678.35 8.6524e-16  29131.70 2 
 28773.64 8.6881e-16  29228.50 2 
 28868.84 8.6924e-16  29325.20 2 
 28964.13 8.6237e-16  29422.00 2 
 29059.43 8.5607e-16  29518.80 2 
 29154.62 8.4957e-16  29615.50 2 
 29249.92 8.4578e-16  29712.30 2 
 29345.11 8.2146e-16  29809.00 2 
 29440.41 8.0537e-16  29905.80 2 
 29535.70 8.1260e-16  30002.60 2 
 29630.89 8.1865e-16  30099.30 2 
 29726.19 8.2566e-16  30196.10 2 
 29821.48 8.1856e-16  30292.90 2 
 29916.68 8.0853e-16  30389.60 2 
 30011.97 8.0881e-16  30486.40 2 
 30107.17 8.0367e-16  30583.10 2 
 30202.46 7.8310e-16  30679.90 2 
 30297.75 7.5760e-16  30776.70 2 
 30392.95 7.5037e-16  30873.40 2 
 30488.24 7.4339e-16  30970.20 2 
 30583.54 7.4108e-16  31067.00 2 
 30678.73 7.3408e-16  31163.70 2 
 30774.02 7.3699e-16  31260.50 2 
 30869.22 7.2540e-16  31357.20 2 
 30964.51 7.2244e-16  31454.00 2 
 31059.81 7.2715e-16  31550.80 2 
 31155.00 7.3489e-16  31647.50 2 
 31250.29 7.3108e-16  31744.30 2 
 31345.59 7.1923e-16  31841.10 2 
 31440.78 7.1141e-16  31937.80 2 
 31536.08 6.9617e-16  32034.60 2 
 31631.27 6.8234e-16  32131.30 2 
 31726.57 6.7538e-16  32228.10 2 
 31821.86 6.8517e-16  32324.90 2 
 31917.06 7.1155e-16  32421.60 2 
 32012.35 7.3985e-16  32518.40 2 
 32107.64 7.6150e-16  32615.20 2 
 32202.84 7.7611e-16  32711.90 2 
 32298.13 8.2023e-16  32808.70 2 
 32393.32 8.5940e-16  32905.40 2 
 32488.62 9.1562e-16  33002.20 2 
 32583.91 1.0033e-15  33099.00 2 
 32679.11 1.1557e-15  33195.70 2 
 32774.40 1.3111e-15  33292.50 2 
 32869.70 1.4069e-15  33389.30 2 
 32964.89 1.4285e-15  33486.00 2 
 33060.19 1.3706e-15  33582.80 2 
 33155.38 1.2143e-15  33679.50 2 
 33250.67 1.0227e-15  33776.30 2 
 33345.97 8.6849e-16  33873.10 2 
 33441.16 7.7692e-16  33969.80 2 
 33536.46 7.3473e-16  34066.60 2 
 33631.75 7.1290e-16  34163.40 2 
 33726.94 7.0689e-16  34260.10 2 
 33822.24 7.3268e-16  34356.90 2 
 33917.43 7.6950e-16  34453.60 2 
 34012.73 8.0621e-16  34550.40 2 
 34108.02 8.1162e-16  34647.20 2 
 34203.21 7.9769e-16  34743.90 2 
 34298.51 7.6765e-16  34840.70 2 
 34393.80 7.4555e-16  34937.50 2 
 34489.00 7.2216e-16  35034.20 2 
 34584.29 7.2142e-16  35131.00 2 
 34679.49 7.1379e-16  35227.70 2 
 34774.78 6.9605e-16  35324.50 2 
 34870.07 6.5533e-16  35421.30 2 
 34965.27 6.3204e-16  35518.00 2 
 35060.56 6.0686e-16  35614.80 2 
 35155.86 6.1058e-16  35711.60 2 
 35251.05 6.0867e-16  35808.30 2 
 35346.34 5.9653e-16  35905.10 2 
 35441.54 5.8203e-16  36001.80 2 
 35536.83 5.6068e-16  36098.60 2 
 35632.13 5.5129e-16  36195.40 2 
 35727.32 5.4292e-16  36292.10 2 
 35822.61 5.3038e-16  36388.90 2 
 35917.91 5.3075e-16  36485.70 2 
 36013.11 5.2446e-16  36582.40 2 
 36108.40 5.2326e-16  36679.20 2 
 36203.59 5.2404e-16  36775.90 2 
 36298.89 5.3239e-16  36872.70 2 
 36394.18 5.3475e-16  36969.50 2 
 36489.38 5.3167e-16  37066.20 2 
 36584.67 5.1940e-16  37163.00 2 
 36679.96 4.9571e-16  37259.80 2 
 36775.16 4.9077e-16  37356.50 2 
 36870.45 4.8475e-16  37453.30 2 
 36965.65 4.8396e-16  37550.00 2 
 37060.94 4.7377e-16  37646.80 2 
 37156.23 4.7429e-16  37743.60 2 
 37251.43 5.0338e-16  37840.30 2 
 37346.72 5.5906e-16  37937.10 2 
 37442.02 5.6954e-16  38033.90 2 
 37537.21 5.4944e-16  38130.60 2 
 37632.51 4.9797e-16  38227.40 2 
 37727.70 4.7344e-16  38324.10 2 
 37822.99 4.6606e-16  38420.90 2 
 37918.29 4.5805e-16  38517.70 2 
 38013.48 4.6651e-16  38614.40 2 
 38108.78 4.7056e-16  38711.20 2 
 38204.07 4.7519e-16  38808.00 2 
 38299.26 4.6842e-16  38904.70 2 
 38394.56 4.5657e-16  39001.50 2 
 38489.75 4.4689e-16  39098.20 2 
 38585.05 4.4389e-16  39195.00 2 
 38680.34 4.4308e-16  39291.80 2 
 38775.54 4.7136e-16  39388.50 2 
 38870.83 4.6877e-16  39485.30 2 
 38966.13 4.6761e-16  39582.10 2 
 39061.32 4.3580e-16  39678.80 2 
 39156.61 4.2673e-16  39775.60 2 
 39251.81 4.2202e-16  39872.30 2 
 39347.10 4.1923e-16  39969.10 2 
 39442.39 4.2465e-16  40065.90 2 
 39537.59 4.2948e-16  40162.60 2 
 39632.88 4.2826e-16  40259.40 2 
 39728.18 4.3211e-16  40356.20 2 
 39823.37 4.3639e-16  40452.90 2 
 39918.66 4.5116e-16  40549.70 2 
 40013.86 4.5982e-16  40646.40 2 
 40109.15 4.5799e-16  40743.20 2 
 40204.45 4.5329e-16  40840.00 2 
 40299.64 4.7524e-16  40936.70 2 
 40394.94 5.7689e-16  41033.50 2 
 40490.23 6.5579e-16  41130.30 2 
 40585.43 6.4884e-16  41227.00 2 
 40680.72 5.7050e-16  41323.80 2 
 40775.91 4.7779e-16  41420.50 2 
 40871.21 4.2416e-16  41517.30 2 
 40966.50 4.0823e-16  41614.10 2 
 41061.70 4.1253e-16  41710.80 2 
 41156.99 4.1660e-16  41807.60 2 
 41252.29 4.1591e-16  41904.40 2 
 41347.48 4.0461e-16  42001.10 2 
 41442.77 3.9322e-16  42097.90 2 
 41537.97 3.9053e-16  42194.60 2 
 41633.26 3.9449e-16  42291.40 2 
 41728.55 4.0989e-16  42388.20 2 
 41823.75 4.2580e-16  42484.90 2 
 41919.05 4.3090e-16  42581.70 2 
 42014.34 4.3104e-16  42678.50 2 
 42109.54 4.2759e-16  42775.20 2 
 42204.83 4.2710e-16  42872.00 2 
 42300.02 4.1795e-16  42968.70 2 
 42395.31 4.0456e-16  43065.50 2 
 42490.61 3.9884e-16  43162.30 2 
 42585.80 4.0369e-16  43259.00 2 
 42681.09 4.1386e-16  43355.80 2 
 42776.39 4.1636e-16  43452.60 2 
 42871.59 4.1513e-16  43549.30 2 
 42966.88 4.1154e-16  43646.10 2 
 43062.08 4.1190e-16  43742.80 2 
 43157.37 4.0654e-16  43839.60 2 
 43252.66 4.0166e-16  43936.40 2 
 43347.85 3.9800e-16  44033.10 2 
 43443.15 3.9484e-16  44129.90 2 
 43538.44 3.8964e-16  44226.70 2 
 43633.64 3.9457e-16  44323.40 2 
 43728.93 3.9697e-16  44420.20 2 
 43824.13 3.9820e-16  44516.90 2 
 43919.42 4.2926e-16  44613.70 2 
 44014.71 4.5608e-16  44710.50 2 
 44109.91 4.6561e-16  44807.20 2 
 44205.20 4.9391e-16  44904.00 2 
 44300.50 4.9200e-16  45000.80 2 
 44395.69 4.6766e-16  45097.50 2 
 44490.99 4.3503e-16  45194.30 2 
 44586.18 3.9950e-16  45291.00 2 
 44681.48 3.7282e-16  45387.80 2 
 44776.77 3.6254e-16  45484.60 2 
 44871.96 3.5727e-16  45581.30 2 
 44967.26 3.5771e-16  45678.10 2 
 45062.55 3.5567e-16  45774.90 2 
 45157.75 3.4593e-16  45871.60 2 
 45253.04 3.5142e-16  45968.40 2 
 45348.24 3.7659e-16  46065.10 2 
 45443.53 3.9601e-16  46161.90 2 
 45538.83 3.8550e-16  46258.70 2 
 45634.02 3.4196e-16  46355.40 2 
 45729.31 3.2602e-16  46452.20 2 
 45824.60 3.3622e-16  46549.00 2 
 45919.80 3.5966e-16  46645.70 2 
 46110.29 4.2595e-16  46839.20 2 
 46205.58 4.2923e-16  46936.00 2 
 46300.88 3.9458e-16  47032.80 2 
 46396.07 4.1847e-16  47129.50 2 
 46491.37 4.3179e-16  47226.30 2 
 46586.66 4.3506e-16  47323.10 2 
 46681.85 4.3187e-16  47419.80 2 
 46777.14 4.1924e-16  47516.60 2 
 46872.34 4.0529e-16  47613.30 2 
 46967.63 3.8984e-16  47710.10 2 
 47062.93 3.6983e-16  47806.90 2 
 47158.13 3.6460e-16  47903.60 2 
 47253.42 3.5604e-16  48000.40 2 
 47348.71 3.6228e-16  48097.20 2 
 47443.91 3.5914e-16  48193.90 2 
 47539.20 3.5955e-16  48290.70 2 
 47634.39 3.6199e-16  48387.40 2 
 47729.69 3.6342e-16  48484.20 2 
 47824.98 3.5107e-16  48581.00 2 
 47920.18 3.5500e-16  48677.70 2 
 48015.47 3.5142e-16  48774.50 2 
 48110.76 3.5098e-16  48871.30 2 
 48205.96 3.9434e-16  48968.00 2 
 48301.25 4.1093e-16  49064.80 2 
 48396.45 4.1775e-16  49161.50 2 
 48491.74 4.1294e-16  49258.30 2 
 48588.02 3.4595e-16  49356.10 2 
 49073.90 3.4798e-16  49849.66 0 
 49564.64 3.5003e-16  50348.16 0 
 50060.29 3.5210e-16  50851.64 0 
 50560.89 3.5419e-16  51360.16 0 
 51066.50 3.5631e-16  51873.76 0 
 51577.16 3.5844e-16  52392.50 0 
 52092.94 3.6059e-16  52916.42 0 
 52527.38 3.6241e-16  53357.73 3 
 52832.40 3.5133e-16  53667.58 3 
 53137.44 3.8236e-16  53977.44 3 
 53442.47 6.0962e-16  54287.29 3 
 53747.50 3.5588e-16  54597.14 3 
 54052.53 2.3494e-16  54907.00 3 
 54357.57 3.0232e-16  55216.85 3 
 54662.59 3.1922e-16  55526.70 3 
 54967.63 3.9457e-16  55836.56 3 
 55272.66 4.2193e-16  56146.41 3 
 55577.70 2.8973e-16  56456.27 3 
 55882.72 3.9683e-16  56766.12 3 
 56187.76 4.5046e-16  57075.98 3 
 56492.79 5.1688e-16  57385.83 3 
 56797.82 5.3148e-16  57695.68 3 
 57102.85 4.1835e-16  58005.53 3 
 57407.89 5.3032e-16  58315.39 3 
 57712.92 6.0225e-16  58625.25 3 
 58017.95 6.2817e-16  58935.10 3 
 58322.98 5.0009e-16  59244.95 3 
 58628.02 4.4526e-16  59554.81 3 
 58933.05 5.0661e-16  59864.66 3 
 59238.07 4.6493e-16  60174.51 3 
 59543.11 7.0964e-16  60484.37 3 
 59848.14 6.9227e-16  60794.22 3 
 60153.17 7.1936e-16  61104.07 3 
 60458.21 6.9140e-16  61413.93 3 
 60763.24 7.6408e-16  61723.78 3 
 61068.26 8.9918e-16  62033.63 3 
 61373.30 1.2229e-15  62343.49 3 
 61678.33 1.7122e-15  62653.34 3 
 61983.36 2.1834e-15  62963.19 3 
 62288.39 2.0797e-15  63273.05 3 
 62593.43 1.8381e-15  63582.90 3 
 62898.46 1.4964e-15  63892.76 3 
 63203.49 1.2765e-15  64202.61 3 
 63508.51 1.0851e-15  64512.46 3 
 63813.56 9.1163e-16  64822.32 3 
 64118.58 8.4564e-16  65132.17 3 
 64423.61 7.6687e-16  65442.02 3 
 64728.65 6.9663e-16  65751.88 3 
 65033.67 6.2374e-16  66061.73 3 
 65338.70 5.5269e-16  66371.58 3 
 65643.75 5.7376e-16  66681.45 3 
 65948.77 5.6728e-16  66991.29 3 
 66253.80 6.6320e-16  67301.14 3 
 66558.84 6.3791e-16  67611.00 3 
 66863.87 6.2589e-16  67920.85 3 
 67168.90 6.0766e-16  68230.71 3 
 67473.93 5.6503e-16  68540.56 3 
 67778.96 5.8319e-16  68850.41 3 
 68084.00 6.1324e-16  69160.27 3 
 68389.02 5.9004e-16  69470.12 3 
 68694.06 5.2887e-16  69779.98 3 
 68999.09 6.1792e-16  70089.83 3 
 69304.12 6.5644e-16  70399.68 3 
 69609.16 7.1849e-16  70709.54 3 
 69914.19 8.4196e-16  71019.39 3 
 70219.22 7.0354e-16  71329.24 3 
 70524.25 7.9516e-16  71639.10 3 
 70829.28 7.3937e-16  71948.95 3 
 71134.32 7.5906e-16  72258.81 3 
 71439.34 8.1018e-16  72568.66 3 
 71744.37 7.4992e-16  72878.51 3 
 72049.42 8.7329e-16  73188.38 3 
 72354.44 9.8615e-16  73498.22 3 
 72659.47 8.6419e-16  73808.07 3 
 72964.51 9.3388e-16  74117.93 3 
 73269.54 1.0474e-15  74427.78 3 
 73574.57 1.0856e-15  74737.63 3 
 73879.60 1.2876e-15  75047.48 3 
 74164.67 1.2695e-15  75337.06 3 
 74184.63 1.3314e-15  75357.34 3 
 74489.67 1.3759e-15  75667.20 3 
 74775.93 1.6423e-15  75957.99 3 
 74794.69 1.5456e-15  75977.05 3 
 75387.22 1.9306e-15  76578.94 3 
 75998.49 2.0337e-15  77199.88 3 
 76609.77 1.9908e-15  77820.82 3 
 77221.05 1.7803e-15  78441.76 3 
 77832.34 1.7622e-15  79062.71 3 
 78443.61 1.6991e-15  79683.65 3 
 79054.89 1.4758e-15  80304.59 3 
 79666.18 1.2399e-15  80925.54 3 
 80277.45 1.1221e-15  81546.48 3 
 80888.73 9.4066e-16  82167.41 3 
 81500.01 8.4543e-16  82788.36 3 
 82111.28 8.3498e-16  83409.30 3 
 82722.57 8.1985e-16  84030.25 3 
 83333.85 7.8060e-16  84651.19 3 
 83945.13 8.3856e-16  85272.13 3 
 84556.40 8.9496e-16  85893.07 3 
 85167.69 9.7158e-16  86514.02 3 
 85778.96 9.8588e-16  87134.95 3 
 86390.24 9.3888e-16  87755.90 3 
 87001.52 8.1424e-16  88376.84 3 
 87612.80 6.6630e-16  88997.78 3 
 88224.07 5.1739e-16  89618.72 3 
 88835.35 4.4865e-16  90239.66 3 
 89446.63 4.3185e-16  90860.60 3 
 90057.92 4.2494e-16  91481.55 3 
 90669.19 3.2698e-16  92102.49 3 
 91280.48 2.5551e-16  92723.44 3 
 91891.76 2.7646e-16  93344.38 3 
 92503.03 3.0143e-16  93965.32 3 
 93114.31 2.8493e-16  94586.26 3 
 93725.58 2.6171e-16  95207.20 3 
 94336.87 2.4988e-16  95828.15 3 
 94948.15 2.9018e-16  96449.09 3 
 95559.42 2.7273e-16  97070.02 3 
 96170.71 3.1796e-16  97690.98 3 
 96781.99 3.3319e-16  98311.92 3 
 97393.27 2.7003e-16  98932.86 3 
 98004.55 2.4382e-16  99553.80 3 
 98615.78 2.5102e-16 100174.70 3 
 99227.11 2.4034e-16 100795.70 3 
 99838.35 2.3036e-16 101416.59 3 
100449.69 2.2420e-16 102037.60 3 
101060.93 2.4173e-16 102658.50 3 
101672.26 2.1982e-16 103279.49 3 
102283.51 2.1455e-16 103900.41 3 
102894.74 2.3092e-16 104521.30 3 
103506.07 2.4210e-16 105142.30 3 
104117.31 2.4685e-16 105763.20 3 
104728.65 3.7322e-16 106384.20 3 
105339.89 4.4498e-16 107005.10 3 
105951.12 3.4364e-16 107626.00 3 
106562.46 3.2369e-16 108247.00 3 
107173.70 3.0914e-16 108867.91 3 
107785.03 3.0964e-16 109488.90 3 
108396.27 3.2560e-16 110109.80 3 
109007.60 3.5614e-16 110730.80 3 
109618.85 4.1962e-16 111351.70 3 
110230.08 4.9580e-16 111972.60 3 
110841.42 5.5237e-16 112593.60 3 
111452.66 8.2015e-16 113214.50 3 
112063.99 1.2063e-15 113835.50 3 
112675.23 1.2657e-15 114456.40 3 
113286.56 1.0433e-15 115077.40 3 
113897.80 8.0722e-16 115698.30 3 
114509.04 6.3411e-16 116319.20 3 
115120.38 5.3852e-16 116940.20 3 
115731.62 4.8621e-16 117561.10 3 
116342.94 4.3347e-16 118182.09 3 
116954.18 4.0102e-16 118802.99 3 
117565.52 3.9376e-16 119424.00 3 
118176.76 4.1597e-16 120044.90 3 
118788.00 4.4749e-16 120665.80 3 
119399.34 4.5540e-16 121286.80 3 
120010.58 4.4796e-16 121907.70 3 
120621.90 4.2981e-16 122528.70 3 
121233.14 4.1788e-16 123149.59 3 
121844.39 4.1515e-16 123770.51 3 
122455.72 4.6372e-16 124391.50 3 
123066.96 4.9574e-16 125012.40 3 
123678.29 4.8467e-16 125633.40 3 
124289.54 4.7202e-16 126254.30 3 
124900.86 4.9496e-16 126875.30 3 
125512.11 5.3421e-16 127496.20 3 
126123.34 5.7080e-16 128117.10 3 
126734.68 6.2259e-16 128738.10 3 
127345.92 7.2182e-16 129359.00 3 
127957.25 9.6377e-16 129980.00 3 
128568.49 8.0955e-16 130600.90 3 
129179.72 4.6655e-16 131221.80 3 
129791.06 3.6502e-16 131842.80 3 
130402.30 3.4488e-16 132463.70 3 
131013.64 3.4194e-16 133084.70 3 
131624.87 3.4180e-16 133705.59 3 
132236.20 3.3972e-16 134326.59 3 
132847.45 3.2334e-16 134947.50 3 
133458.69 3.3176e-16 135568.41 3 
134070.03 3.3658e-16 136189.41 3 
134681.26 3.3538e-16 136810.30 3 
135292.59 3.4718e-16 137431.30 3 
135903.84 3.5362e-16 138052.20 3 
136515.17 3.4513e-16 138673.20 3 
137126.40 3.1771e-16 139294.09 3 
137737.64 3.0415e-16 139915.00 3 
138348.98 3.1199e-16 140536.00 3 
138960.22 3.0035e-16 141156.91 3 
139571.54 3.1384e-16 141777.89 3 
140182.79 3.0570e-16 142398.80 3 
140794.12 3.1464e-16 143019.80 3 
141405.37 2.9992e-16 143640.70 3 
142016.60 2.9344e-16 144261.59 3 
142627.95 2.8680e-16 144882.61 3 
143153.93 2.9207e-16 145416.91 3 
144056.55 2.9098e-16 146333.80 3 
144959.28 2.6516e-16 147250.80 3 
145861.92 2.5228e-16 148167.70 3 
146764.54 2.6561e-16 149084.59 3 
147667.18 2.6264e-16 150001.50 3 
148569.91 2.4542e-16 150918.50 3 
149472.54 2.7016e-16 151835.41 3 
150375.17 2.6728e-16 152752.30 3 
151277.90 2.5167e-16 153669.30 3 
152180.53 2.6757e-16 154586.20 3 
153083.16 2.6000e-16 155503.09 3 
153985.79 2.7776e-16 156420.00 3 
154888.52 5.1130e-16 157337.00 3 
155791.16 6.9392e-16 158253.91 3 
156693.78 4.0397e-16 159170.80 3 
157596.51 2.8489e-16 160087.80 3 
158499.15 2.7321e-16 161004.70 3 
159401.77 2.6357e-16 161921.59 3 
160304.50 2.8752e-16 162838.59 3 
161207.14 2.8725e-16 163755.50 3 
162109.76 2.9655e-16 164672.39 3 
163012.40 3.1091e-16 165589.30 3 
163915.14 3.7903e-16 166506.31 3 
164817.75 3.9835e-16 167423.19 3 
165720.39 3.6617e-16 168340.09 3 
166623.02 3.6230e-16 169257.00 3 
167525.75 3.3825e-16 170174.00 3 
168428.39 3.4518e-16 171090.91 3 
169331.03 4.0236e-16 172007.81 3 
170233.76 5.3094e-16 172924.81 3 
171136.38 4.6387e-16 173841.70 3 
172039.02 3.7568e-16 174758.61 3 
172941.75 3.7588e-16 175675.61 3 
173844.37 3.8494e-16 176592.50 3 
174747.01 3.5321e-16 177509.41 3 
175649.63 3.2652e-16 178426.30 3 
176552.36 3.4474e-16 179343.30 3 
177454.99 3.3739e-16 180260.20 3 
178357.62 3.2695e-16 181177.09 3 
179260.35 3.3174e-16 182094.09 3 
180162.98 3.2278e-16 183011.00 3 
181065.61 3.1643e-16 183927.89 3 
181968.34 3.0163e-16 184844.89 3 
182870.97 3.1973e-16 185761.80 3 
183773.61 3.1940e-16 186678.70 3 
184676.23 3.2842e-16 187595.59 3 
185578.96 3.4287e-16 188512.59 3 
186481.60 5.3697e-16 189429.50 3 
187384.22 6.7683e-16 190346.39 3 
188286.97 4.1903e-16 191263.41 3 
189189.60 3.3494e-16 192180.31 3 
190092.21 3.4434e-16 193097.19 3 
190994.85 3.4072e-16 194014.09 3 
191897.59 3.3438e-16 194931.11 3 
192800.21 3.0530e-16 195848.00 3 
193702.85 3.2605e-16 196764.91 3 
194605.58 3.3890e-16 197681.91 3 
195508.20 3.2307e-16 198598.80 3 
196410.84 3.2841e-16 199515.70 3 
197313.48 3.2915e-16 200432.61 3 
198216.21 3.3073e-16 201349.61 3 
199118.83 3.3539e-16 202266.50 3 
200021.47 3.3174e-16 203183.41 3 
200924.20 3.5192e-16 204100.41 3 
202353.60 3.2169e-16 205552.41 3 
204081.27 3.6988e-16 207307.39 3 
205809.95 3.5184e-16 209063.39 3 
207539.62 3.3140e-16 210820.41 3 
209270.15 3.6597e-16 212578.30 3 
211001.58 3.6446e-16 214337.09 3 
212733.99 3.4942e-16 216096.89 3 
214467.31 3.5862e-16 217857.61 3 
216201.58 4.0171e-16 219619.30 3 
217936.85 3.7488e-16 221382.00 3 
219673.00 3.5500e-16 223145.59 3 
221410.15 3.7034e-16 224910.20 3 
223148.18 3.8839e-16 226675.70 3 
224887.17 3.7497e-16 228442.19 3 
226627.17 3.6012e-16 230209.69 3 
228368.05 3.7856e-16 231978.09 3 
230109.92 3.8999e-16 233747.50 3 
231852.78 3.9295e-16 235517.91 3 
233596.51 3.8798e-16 237289.20 3 
235341.33 3.8748e-16 239061.61 3 
237086.94 3.9416e-16 240834.81 3 
238833.61 4.0551e-16 242609.09 3 
240581.30 4.0176e-16 244384.41 3 
242329.86 3.9879e-16 246160.61 3 
244079.39 4.0653e-16 247937.80 3 
245829.92 4.0674e-16 249716.00 3 
247581.33 4.0810e-16 251495.09 3 
249333.83 4.0469e-16 253275.30 3 
251087.22 4.0139e-16 255056.41 3 
252841.69 4.0300e-16 256838.61 3 
254597.02 4.1295e-16 258621.69 3 
256353.38 4.1254e-16 260405.81 3 
258110.69 4.3379e-16 262190.91 3 
259868.99 4.3472e-16 263977.00 3 
261628.27 4.0982e-16 265764.09 3 
263388.57 4.0536e-16 267552.22 3 
265149.82 4.1144e-16 269341.31 3 
266912.06 4.1784e-16 271131.41 3 
268675.28 4.1632e-16 272922.50 3 
270439.49 4.1469e-16 274714.59 3 
272204.80 4.1705e-16 276507.81 3 
273970.97 4.1676e-16 278301.91 3 
275738.13 4.2264e-16 280097.00 3 
277506.37 4.5490e-16 281893.19 3 
279275.62 4.2278e-16 283690.41 3 
281045.73 4.4000e-16 285488.50 3 
282816.92 4.3326e-16 287287.69 3 
284589.12 4.2576e-16 289087.91 3 
286362.40 4.2053e-16 290889.22 3 
288136.64 4.2358e-16 292691.50 3 
289911.79 4.0165e-16 294494.72 3 
291688.09 4.2999e-16 296299.09 3 
293465.31 4.2979e-16 298104.41 3 
295243.57 4.2536e-16 299910.78 3 
297022.85 4.1977e-16 301718.19 3 
298803.11 4.5363e-16 303526.59 3 
300584.45 4.2846e-16 305336.09 3 
302366.78 4.3983e-16 307146.59 3 
304150.09 4.3121e-16 308958.09 3 
305934.48 4.3494e-16 310770.69 3 
307719.97 4.2421e-16 312584.41 3 
309506.42 4.3029e-16 314399.09 3 
311293.88 4.2492e-16 316214.81 3 
313082.30 4.5238e-16 318031.50 3 
314871.91 4.3052e-16 319849.41 3 
316662.42 4.4003e-16 321668.22 3 
318454.07 4.5691e-16 323488.19 3 
320246.63 4.5199e-16 325309.09 3 
322040.37 4.5327e-16 327131.19 3 
323835.13 4.5150e-16 328954.31 3 
325630.80 4.8118e-16 330778.38 3 
327427.62 4.7417e-16 332603.59 3 
329225.51 4.7998e-16 334429.91 3 
331024.45 4.9257e-16 336257.28 3 
332824.43 5.4868e-16 338085.72 3 
334625.43 7.3309e-16 339915.19 3 
336427.44 5.7719e-16 341745.69 3 
338230.56 4.5052e-16 343577.31 3 
340034.85 4.5953e-16 345410.12 3 
341840.01 4.8454e-16 347243.81 3 
343646.36 4.8606e-16 349078.72 3 
