# An Atlas of Galaxy Spectral Energy Distributions from the Ultraviolet to the Mid-Infrared
# Brown et al. (2014)
# http://dx.doi.org/10.5072/03/529D3551F0117
# 
# Column 1 : Restframe Wavelength (Angstrom)
# Column 2 : Flux per unit wavelength (ergs/s/cm^2/Angstrom)
# Column 3 : Observed wavelength (Angstrom)
# Column 4 : Source (0 = model, 1 = Optical Spectrum, 2 = Akari, 3 = Spitzer IRS)
# 
   100.06 1.9023e-27    103.99 0 
   101.92 3.1790e-27    105.93 0 
   104.05 4.7895e-27    108.14 0 
   105.99 7.3163e-27    110.15 0 
   107.96 1.1358e-26    112.20 0 
   109.97 1.9828e-26    114.29 0 
   114.09 4.0953e-26    118.58 0 
   118.10 7.7856e-26    122.74 0 
   121.13 3.6668e-25    125.89 0 
   125.10 6.3283e-25    130.02 0 
   127.13 7.9853e-25    132.13 0 
   128.01 9.1262e-25    133.05 0 
   131.00 1.2656e-24    136.14 0 
   131.90 1.6043e-24    137.09 0 
   134.05 1.9647e-24    139.32 0 
   136.85 3.0499e-24    142.23 0 
   140.04 4.0671e-24    145.55 0 
   142.97 1.3010e-23    148.59 0 
   146.98 4.1237e-23    152.76 0 
   151.10 5.6272e-23    157.04 0 
   154.97 7.6787e-23    161.06 0 
   158.95 1.0478e-22    165.20 0 
   161.90 1.3040e-22    168.27 0 
   166.06 1.7510e-22    172.58 0 
   169.93 2.2714e-22    176.60 0 
   173.08 2.7688e-22    179.89 0 
   177.12 3.5342e-22    184.08 0 
   179.99 4.2198e-22    187.07 0 
   182.08 4.7347e-22    189.23 0 
   185.89 5.9332e-22    193.20 0 
   191.10 7.7676e-22    198.61 0 
   194.20 9.1472e-22    201.84 0 
   197.81 1.1125e-21    205.59 0 
   201.96 1.3561e-21    209.89 0 
   204.77 1.5642e-21    212.81 0 
   210.02 1.8762e-21    218.27 0 
   215.90 2.5427e-21    224.39 0 
   219.92 3.0150e-21    228.56 0 
   222.98 3.3674e-21    231.74 0 
   227.12 3.9746e-21    236.05 0 
   229.75 6.7033e-21    238.78 0 
   234.02 1.1920e-20    243.22 0 
   240.03 1.7390e-20    249.46 0 
   246.18 1.9111e-20    255.86 0 
   251.92 2.3621e-20    261.82 0 
   257.19 2.2454e-20    267.30 0 
   260.17 2.7752e-20    270.40 0 
   263.79 3.1937e-20    274.16 0 
   268.69 3.5587e-20    279.25 0 
   273.69 3.9381e-20    284.45 0 
   278.78 4.3380e-20    289.73 0 
   283.96 4.7895e-20    295.12 0 
   289.91 5.1202e-20    301.30 0 
   295.98 5.7848e-20    307.61 0 
   300.79 6.1985e-20    312.61 0 
   307.79 7.0516e-20    319.89 0 
   317.88 8.4002e-20    330.37 0 
   328.29 9.7116e-20    341.19 0 
   338.27 1.1023e-19    351.56 0 
   347.74 1.2396e-19    361.41 0 
   356.66 1.3845e-19    370.68 0 
   365.81 1.5570e-19    380.19 0 
   375.20 1.7033e-19    389.94 0 
   384.82 1.8084e-19    399.94 0 
   394.69 2.0620e-19    410.20 0 
   404.82 2.2819e-19    420.73 0 
   414.25 2.4451e-19    430.53 0 
   421.95 2.5721e-19    438.53 0 
   429.79 2.7120e-19    446.68 0 
   440.82 2.9600e-19    458.14 0 
   451.09 3.1426e-19    468.81 0 
   459.47 3.2907e-19    477.53 0 
   470.17 3.4857e-19    488.65 0 
   480.02 3.7264e-19    498.88 0 
   490.07 3.8574e-19    509.33 0 
   500.33 4.1428e-19    520.00 0 
   506.13 4.2588e-19    526.02 0 
   511.99 5.1320e-19    532.11 0 
   520.31 5.3615e-19    540.75 0 
   529.98 5.6142e-19    550.81 0 
   539.83 5.6531e-19    561.05 0 
   549.87 6.4164e-19    571.48 0 
   560.09 7.2159e-19    582.10 0 
   570.50 7.9486e-19    592.93 0 
   579.77 8.0406e-19    602.56 0 
   590.55 9.1472e-19    613.76 0 
   600.15 9.5124e-19    623.73 0 
   609.90 1.0076e-18    633.87 0 
   619.81 1.1975e-18    644.17 0 
   629.88 1.2861e-18    654.64 0 
   640.12 1.3468e-18    665.27 0 
   650.52 1.5007e-18    676.08 0 
   658.05 1.6006e-18    683.91 0 
   665.67 1.7112e-18    691.83 0 
   674.93 1.7713e-18    701.46 0 
   684.32 1.7959e-18    711.21 0 
   695.44 2.2402e-18    722.77 0 
   705.11 2.2044e-18    732.82 0 
   716.57 2.6320e-18    744.73 0 
   726.54 2.7880e-18    755.09 0 
   734.95 2.9464e-18    763.84 0 
   745.18 3.3442e-18    774.46 0 
   755.54 3.6165e-18    785.24 0 
   764.29 3.8485e-18    794.33 0 
   774.92 4.3081e-18    805.38 0 
   785.70 4.7021e-18    816.58 0 
   794.80 5.0037e-18    826.04 0 
   805.86 5.3246e-18    837.53 0 
   815.19 5.6142e-18    847.23 0 
   824.63 6.2559e-18    857.04 0 
   834.18 5.3369e-18    866.96 0 
   845.78 6.8437e-18    879.02 0 
   855.58 7.1827e-18    889.20 0 
   865.48 7.8576e-18    899.50 0 
   875.51 8.5761e-18    909.91 0 
   885.64 9.4905e-18    920.45 0 
   895.90 1.0193e-17    931.11 0 
   904.19 1.0382e-17    939.72 0 
   914.66 1.6493e-17    950.60 0 
   925.25 1.1866e-16    961.61 0 
   935.96 2.7120e-16    972.75 0 
   944.62 5.3739e-16    981.75 0 
   955.56 7.8215e-16    993.12 0 
   964.40 9.0010e-16   1002.31 0 
   975.57 1.4037e-16   1013.91 0 
   984.60 7.8757e-16   1023.29 0 
   996.00 8.5367e-16   1035.14 0 
  1005.22 1.2832e-15   1044.72 0 
  1014.52 1.2511e-15   1054.39 0 
  1023.90 5.3124e-16   1064.14 0 
  1035.76 8.8775e-16   1076.47 0 
  1045.34 1.7672e-15   1086.43 0 
  1055.02 1.7632e-15   1096.48 0 
  1064.78 1.4005e-15   1106.62 0 
  1074.63 1.7072e-15   1116.86 0 
  1084.57 1.3530e-15   1127.20 0 
  1094.61 1.8420e-15   1137.63 0 
  1104.74 1.7918e-15   1148.15 0 
  1114.96 1.7390e-15   1158.78 0 
  1125.28 1.5823e-15   1169.50 0 
  1135.69 2.0573e-15   1180.32 0 
  1146.20 1.8806e-15   1191.24 0 
  1154.14 2.0337e-15   1199.50 0 
  1164.82 2.1296e-15   1210.60 0 
  1175.60 1.4801e-15   1221.80 0 
  1183.75 2.1100e-15   1230.27 0 
  1194.70 1.4398e-15   1241.65 0 
  1205.76 1.0287e-15   1253.14 0 
  1214.11 6.8279e-16   1261.83 0 
  1225.35 1.4665e-15   1273.50 0 
  1233.84 2.2924e-15   1282.33 0 
  1245.26 2.5662e-15   1294.20 0 
  1253.89 2.4734e-15   1303.17 0 
  1265.49 2.1247e-15   1315.22 0 
  1274.26 2.8138e-15   1324.34 0 
  1286.05 2.9874e-15   1336.60 0 
  1294.97 2.3621e-15   1345.86 0 
  1303.94 2.3512e-15   1355.19 0 
  1316.01 3.0012e-15   1367.73 0 
  1325.13 2.8926e-15   1377.21 0 
  1334.32 2.5721e-15   1386.76 0 
  1343.57 3.1210e-15   1396.37 0 
  1356.00 3.0429e-15   1409.29 0 
  1365.40 2.7245e-15   1419.06 0 
  1374.86 2.9060e-15   1428.89 0 
  1384.39 2.9668e-15   1438.80 0 
  1393.99 2.6079e-15   1448.77 0 
  1403.65 2.7371e-15   1458.81 0 
  1413.38 2.8008e-15   1468.93 0 
  1426.46 2.9127e-15   1482.52 0 
  1436.35 2.9127e-15   1492.79 0 
  1442.98 3.0995e-15   1499.69 0 
  1446.30 3.1644e-15   1503.14 0 
  1456.33 3.0924e-15   1513.56 0 
  1466.42 2.8661e-15   1524.05 0 
  1476.59 2.8793e-15   1534.62 0 
  1483.40 2.9532e-15   1541.70 0 
  1493.69 3.0359e-15   1552.39 0 
  1504.04 2.8860e-15   1563.15 0 
  1510.98 2.5721e-15   1570.36 0 
  1517.96 2.7752e-15   1577.61 0 
  1524.96 2.6995e-15   1584.89 0 
  1535.53 2.3566e-15   1595.88 0 
  1546.18 2.6381e-15   1606.94 0 
  1553.31 2.5020e-15   1614.36 0 
  1564.08 2.5544e-15   1625.55 0 
  1574.92 2.7497e-15   1636.82 0 
  1585.84 2.9060e-15   1648.16 0 
  1596.83 2.9943e-15   1659.59 0 
  1604.20 2.9464e-15   1667.25 0 
  1615.32 2.9805e-15   1678.80 0 
  1626.52 2.8268e-15   1690.44 0 
  1634.03 3.0359e-15   1698.24 0 
  1645.35 3.1066e-15   1710.02 0 
  1656.76 2.8661e-15   1721.87 0 
  1664.40 3.1717e-15   1729.82 0 
  1672.09 2.8203e-15   1737.80 0 
  1675.94 3.2158e-15   1741.81 0 
  1683.68 3.3751e-15   1749.85 0 
  1695.35 3.1717e-15   1761.98 0 
  1703.17 3.0640e-15   1770.11 0 
  1714.98 2.9261e-15   1782.38 0 
  1726.87 2.9328e-15   1794.73 0 
  1734.84 3.1498e-15   1803.02 0 
  1746.86 3.0924e-15   1815.52 0 
  1754.93 3.3288e-15   1823.90 0 
  1763.03 3.0429e-15   1832.31 0 
  1775.25 3.1571e-15   1845.02 0 
  1783.44 3.2232e-15   1853.53 0 
  1795.80 3.4857e-15   1866.38 0 
  1804.09 3.4617e-15   1874.99 0 
  1816.60 3.2158e-15   1887.99 0 
  1824.98 3.2983e-15   1896.71 0 
  1833.41 3.1717e-15   1905.46 0 
  1846.12 2.9194e-15   1918.67 0 
  1854.64 2.9600e-15   1927.53 0 
  1863.20 3.0781e-15   1936.42 0 
  1876.11 3.3365e-15   1949.84 0 
  1884.77 3.0924e-15   1958.84 0 
  1893.47 2.9943e-15   1967.89 0 
  1906.60 3.1790e-15   1981.53 0 
  1915.40 3.0852e-15   1990.67 0 
  1924.24 3.0359e-15   1999.86 0 
  1933.12 3.0924e-15   2009.09 0 
  1946.52 3.2983e-15   2023.02 0 
  1955.51 3.1138e-15   2032.36 0 
  1969.06 3.4379e-15   2046.45 0 
  1978.15 3.5261e-15   2055.89 0 
  1982.71 3.3519e-15   2060.63 0 
  1996.45 3.2756e-15   2074.91 0 
  2005.67 3.3674e-15   2084.49 0 
  2014.93 3.2605e-15   2094.11 0 
  2024.23 3.4142e-15   2103.78 0 
  2033.57 3.2756e-15   2113.49 0 
  2042.96 3.4300e-15   2123.24 0 
  2057.12 3.2983e-15   2137.96 0 
  2066.61 3.3135e-15   2147.83 0 
  2076.15 3.5669e-15   2157.74 0 
  2085.73 3.5834e-15   2167.70 0 
  2095.36 3.3985e-15   2177.71 0 
  2105.03 3.4142e-15   2187.76 0 
  2114.75 3.4697e-15   2197.86 0 
  2124.51 3.5261e-15   2208.01 0 
  2134.32 3.2605e-15   2218.20 0 
  2144.17 3.3985e-15   2228.44 0 
  2154.07 3.5261e-15   2238.72 0 
  2164.01 3.4142e-15   2249.05 0 
  2174.00 3.3985e-15   2259.44 0 
  2184.03 3.3829e-15   2269.86 0 
  2194.11 3.5587e-15   2280.34 0 
  2204.24 3.4617e-15   2290.87 0 
  2214.42 3.2758e-15   2301.44 0 
  2224.64 3.1880e-15   2312.07 0 
  2234.90 3.4652e-15   2322.74 0 
  2245.22 3.3108e-15   2333.46 0 
  2255.58 3.1633e-15   2344.23 0 
  2266.00 3.2385e-15   2355.05 0 
  2276.46 3.3539e-15   2365.92 0 
  2286.96 3.4814e-15   2376.84 0 
  2297.52 3.2807e-15   2387.81 0 
  2302.81 3.3195e-15   2393.32 0 
  2313.44 3.1716e-15   2404.36 0 
  2324.12 2.4974e-15   2415.46 0 
  2334.85 2.9289e-15   2426.61 0 
  2345.63 2.8049e-15   2437.81 0 
  2356.45 3.1198e-15   2449.06 0 
  2367.33 2.8206e-15   2460.37 0 
  2372.79 2.9475e-15   2466.04 0 
  2383.74 2.6895e-15   2477.42 0 
  2394.74 2.9033e-15   2488.86 0 
  2405.80 2.7932e-15   2500.35 0 
  2416.90 2.8796e-15   2511.89 0 
  2422.47 3.1220e-15   2517.68 0 
  2433.66 3.0106e-15   2529.30 0 
  2444.89 3.2127e-15   2540.97 0 
  2456.17 3.1776e-15   2552.70 0 
  2467.51 3.1573e-15   2564.48 0 
  2473.20 3.0299e-15   2570.40 0 
  2484.61 3.1021e-15   2582.26 0 
  2496.08 2.9436e-15   2594.18 0 
  2507.60 3.3274e-15   2606.15 0 
  2513.39 2.8988e-15   2612.16 0 
  2519.18 2.9467e-15   2618.18 0 
  2524.99 2.8343e-15   2624.22 0 
  2536.64 2.9019e-15   2636.33 0 
  2542.49 2.8760e-15   2642.41 0 
  2554.22 3.1334e-15   2654.61 0 
  2566.01 3.0357e-15   2666.86 0 
  2577.86 3.2396e-15   2679.17 0 
  2583.80 3.2107e-15   2685.34 0 
  2595.73 3.1611e-15   2697.74 0 
  2607.71 3.0484e-15   2710.19 0 
  2613.72 2.9935e-15   2716.44 0 
  2625.79 3.1946e-15   2728.98 0 
  2637.90 3.3393e-15   2741.57 0 
  2643.98 3.6879e-15   2747.89 0 
  2656.19 3.8108e-15   2760.58 0 
  2662.31 3.4130e-15   2766.94 0 
  2674.60 3.6006e-15   2779.71 0 
  2686.95 3.6192e-15   2792.54 0 
  2693.14 3.4256e-15   2798.98 0 
  2705.57 3.5643e-15   2811.90 0 
  2718.06 3.3513e-15   2824.88 0 
  2724.33 3.3523e-15   2831.39 0 
  2736.90 3.5447e-15   2844.46 0 
  2743.21 3.0041e-15   2851.02 0 
  2755.87 3.1186e-15   2864.18 0 
  2762.22 3.2740e-15   2870.78 0 
  2774.98 3.4540e-15   2884.03 0 
  2787.78 3.1957e-15   2897.34 0 
  2794.21 2.5101e-15   2904.02 0 
  2807.11 2.7099e-15   2917.43 0 
  2813.58 3.4441e-15   2924.15 0 
  2826.57 3.7010e-15   2937.65 0 
  2833.08 3.5764e-15   2944.42 0 
  2846.16 3.4810e-15   2958.01 0 
  2852.72 3.3024e-15   2964.83 0 
  2865.89 3.7161e-15   2978.52 0 
  2872.49 3.7343e-15   2985.38 0 
  2885.75 3.7193e-15   2999.16 0 
  2892.40 3.7119e-15   3006.08 0 
  2912.45 4.1019e-15   3026.91 0 
  2932.64 3.9389e-15   3047.89 0 
  2952.97 3.8883e-15   3069.02 0 
  2966.60 3.9905e-15   3083.19 0 
  2987.16 4.0218e-15   3104.56 0 
  3007.87 4.1003e-15   3126.08 0 
  3028.72 4.1135e-15   3147.75 0 
  3049.71 4.1459e-15   3169.57 0 
  3070.85 4.2075e-15   3191.54 0 
  3092.14 4.2602e-15   3213.66 0 
  3113.57 4.2839e-15   3235.94 0 
  3127.95 4.2375e-15   3250.87 0 
  3149.63 4.2907e-15   3273.41 0 
  3171.46 4.3246e-15   3296.10 0 
  3193.44 4.1055e-15   3318.94 0 
  3208.18 4.2820e-15   3334.26 0 
  3230.42 4.0744e-15   3357.38 0 
  3252.81 4.3903e-15   3380.65 0 
  3267.83 4.5896e-15   3396.25 0 
  3290.48 4.5836e-15   3419.79 0 
  3313.29 4.5881e-15   3443.50 0 
  3320.93 4.5897e-15   3451.44 0 
  3328.58 4.6981e-15   3459.39 0 
  3336.25 4.8314e-15   3467.37 0 
  3343.94 4.5104e-15   3475.36 0 
  3351.65 4.5958e-15   3483.37 0 
  3359.38 4.6936e-15   3491.40 0 
  3367.12 4.6095e-15   3499.45 0 
  3374.89 4.1957e-15   3507.52 0 
  3382.67 4.3546e-15   3515.60 0 
  3390.46 4.7326e-15   3523.71 0 
  3398.28 4.7124e-15   3531.83 0 
  3406.11 4.6067e-15   3539.97 0 
  3413.96 4.6940e-15   3548.13 0 
  3421.84 4.8606e-15   3556.31 0 
  3429.72 4.7406e-15   3564.51 0 
  3437.63 4.8193e-15   3572.73 0 
  3445.55 4.2475e-15   3580.96 0 
  3453.50 4.9463e-15   3589.22 0 
  3461.46 4.4919e-15   3597.49 0 
  3469.44 4.6194e-15   3605.79 0 
  3477.44 4.4232e-15   3614.10 0 
  3485.45 4.6013e-15   3622.43 0 
  3493.49 4.5398e-15   3630.78 0 
  3501.54 4.5940e-15   3639.15 0 
  3509.61 4.6274e-15   3647.54 0 
  3517.70 4.4822e-15   3655.95 0 
  3525.81 4.6094e-15   3664.37 0 
  3531.22 3.0723e-15   3670.00 1 
  3533.87 6.0090e-15   3672.75 1 
  3536.51 5.2070e-15   3675.50 1 
  3539.16 3.9761e-15   3678.25 1 
  3541.81 4.3514e-15   3681.00 1 
  3544.45 6.0736e-15   3683.75 1 
  3547.10 5.6225e-15   3686.50 1 
  3549.75 4.6448e-15   3689.25 1 
  3552.39 5.0925e-15   3692.00 1 
  3555.04 4.6940e-15   3694.75 1 
  3557.68 4.5770e-15   3697.50 1 
  3560.33 3.3067e-15   3700.25 1 
  3562.98 4.9351e-15   3703.00 1 
  3565.62 4.6248e-15   3705.75 1 
  3568.27 4.6515e-15   3708.50 1 
  3570.91 5.3611e-15   3711.25 1 
  3573.56 3.9583e-15   3714.00 1 
  3576.21 4.1694e-15   3716.75 1 
  3578.85 5.0221e-15   3719.50 1 
  3581.50 5.5071e-15   3722.25 1 
  3584.14 5.2967e-15   3725.00 1 
  3586.79 4.2016e-15   3727.75 1 
  3589.44 4.3222e-15   3730.50 1 
  3592.08 4.4983e-15   3733.25 1 
  3594.73 4.5452e-15   3736.00 1 
  3597.37 5.3508e-15   3738.75 1 
  3600.02 4.6169e-15   3741.50 1 
  3602.67 3.7882e-15   3744.25 1 
  3605.31 5.2920e-15   3747.00 1 
  3607.96 4.5893e-15   3749.75 1 
  3610.60 3.5228e-15   3752.50 1 
  3613.25 4.6498e-15   3755.25 1 
  3615.90 4.7001e-15   3758.00 1 
  3618.54 4.7404e-15   3760.75 1 
  3621.19 5.4080e-15   3763.50 1 
  3623.83 4.8739e-15   3766.25 1 
  3626.48 5.1134e-15   3769.00 1 
  3629.13 5.0575e-15   3771.75 1 
  3631.77 5.4542e-15   3774.50 1 
  3634.42 5.3890e-15   3777.25 1 
  3637.06 4.1372e-15   3780.00 1 
  3639.71 4.8633e-15   3782.75 1 
  3642.36 4.3070e-15   3785.50 1 
  3645.00 5.0256e-15   3788.25 1 
  3647.65 4.0757e-15   3791.00 1 
  3650.29 4.6513e-15   3793.75 1 
  3652.94 4.7404e-15   3796.50 1 
  3655.59 4.7831e-15   3799.25 1 
  3658.23 4.3683e-15   3802.00 1 
  3660.88 5.5485e-15   3804.75 1 
  3663.52 4.5918e-15   3807.50 1 
  3666.17 5.5824e-15   3810.25 1 
  3668.82 4.9920e-15   3813.00 1 
  3671.46 4.6265e-15   3815.75 1 
  3674.11 4.8660e-15   3818.50 1 
  3676.75 4.8835e-15   3821.25 1 
  3679.40 4.6349e-15   3824.00 1 
  3682.05 5.5668e-15   3826.75 1 
  3684.69 4.8284e-15   3829.50 1 
  3687.34 5.0624e-15   3832.25 1 
  3689.98 5.6742e-15   3835.00 1 
  3692.63 5.4811e-15   3837.75 1 
  3695.28 4.5423e-15   3840.50 1 
  3697.92 4.7554e-15   3843.25 1 
  3700.57 5.6609e-15   3846.00 1 
  3703.21 5.1315e-15   3848.75 1 
  3705.86 4.6361e-15   3851.50 1 
  3708.51 4.6671e-15   3854.25 1 
  3711.15 4.6825e-15   3857.00 1 
  3713.80 4.5016e-15   3859.75 1 
  3716.44 6.1924e-15   3862.50 1 
  3719.09 6.1333e-15   3865.25 1 
  3721.74 6.6586e-15   3868.00 1 
  3724.38 7.5787e-15   3870.75 1 
  3727.03 9.1026e-15   3873.50 1 
  3729.67 9.8699e-15   3876.25 1 
  3732.32 8.5245e-15   3879.00 1 
  3734.97 6.7958e-15   3881.75 1 
  3737.61 5.5542e-15   3884.50 1 
  3740.26 5.9124e-15   3887.25 1 
  3742.90 6.1771e-15   3890.00 1 
  3745.55 5.6268e-15   3892.75 1 
  3748.20 5.6180e-15   3895.50 1 
  3750.84 5.7334e-15   3898.25 1 
  3753.49 5.5248e-15   3901.00 1 
  3756.13 5.9269e-15   3903.75 1 
  3758.78 5.8197e-15   3906.50 1 
  3761.43 5.9322e-15   3909.25 1 
  3764.07 5.9856e-15   3912.00 1 
  3766.72 5.6215e-15   3914.75 1 
  3769.36 5.3632e-15   3917.50 1 
  3772.01 5.0816e-15   3920.25 1 
  3774.66 5.7089e-15   3923.00 1 
  3777.30 6.0014e-15   3925.75 1 
  3779.95 6.5695e-15   3928.50 1 
  3782.59 7.2824e-15   3931.25 1 
  3785.24 6.8108e-15   3934.00 1 
  3787.89 6.6643e-15   3936.75 1 
  3790.53 6.9687e-15   3939.50 1 
  3793.18 6.6489e-15   3942.25 1 
  3795.82 5.7999e-15   3945.00 1 
  3798.47 5.4505e-15   3947.75 1 
  3801.12 5.0525e-15   3950.50 1 
  3803.76 5.5042e-15   3953.25 1 
  3806.41 6.5831e-15   3956.00 1 
  3809.05 6.8787e-15   3958.75 1 
  3811.70 7.1046e-15   3961.50 1 
  3814.35 6.7163e-15   3964.25 1 
  3816.99 6.9483e-15   3967.00 1 
  3819.64 6.9747e-15   3969.75 1 
  3822.28 6.9464e-15   3972.50 1 
  3824.93 6.5850e-15   3975.25 1 
  3827.58 6.2487e-15   3978.00 1 
  3830.22 5.8551e-15   3980.75 1 
  3832.87 5.0776e-15   3983.50 1 
  3835.51 4.8386e-15   3986.25 1 
  3838.16 4.6696e-15   3989.00 1 
  3840.81 5.2036e-15   3991.75 1 
  3843.45 6.1897e-15   3994.50 1 
  3846.10 6.7067e-15   3997.25 1 
  3848.74 7.2158e-15   4000.00 1 
  3851.39 7.1415e-15   4002.75 1 
  3854.04 6.9886e-15   4005.50 1 
  3856.68 7.7439e-15   4008.25 1 
  3859.33 8.1233e-15   4011.00 1 
  3861.97 8.1103e-15   4013.75 1 
  3864.62 8.7045e-15   4016.50 1 
  3867.27 8.3524e-15   4019.25 1 
  3869.91 8.7690e-15   4022.00 1 
  3872.56 8.0993e-15   4024.75 1 
  3875.20 7.3185e-15   4027.50 1 
  3877.85 7.0125e-15   4030.25 1 
  3880.50 6.7796e-15   4033.00 1 
  3883.14 6.5303e-15   4035.75 1 
  3885.79 6.1951e-15   4038.50 1 
  3888.43 5.5377e-15   4041.25 1 
  3891.08 6.0010e-15   4044.00 1 
  3893.73 6.4434e-15   4046.75 1 
  3896.37 6.1460e-15   4049.50 1 
  3899.02 6.8725e-15   4052.25 1 
  3901.66 7.0716e-15   4055.00 1 
  3904.31 7.6068e-15   4057.75 1 
  3906.96 7.6470e-15   4060.50 1 
  3909.60 7.7091e-15   4063.25 1 
  3912.25 8.5681e-15   4066.00 1 
  3914.89 8.9437e-15   4068.75 1 
  3917.54 8.0057e-15   4071.50 1 
  3920.19 7.8872e-15   4074.25 1 
  3922.83 7.4379e-15   4077.00 1 
  3925.48 8.1772e-15   4079.75 1 
  3928.12 6.5909e-15   4082.50 1 
  3930.77 6.0778e-15   4085.25 1 
  3933.42 5.7219e-15   4088.00 1 
  3936.06 5.8965e-15   4090.75 1 
  3938.71 6.6509e-15   4093.50 1 
  3941.35 6.6532e-15   4096.25 1 
  3944.00 7.0809e-15   4099.00 1 
  3946.65 7.5315e-15   4101.75 1 
  3949.29 7.5913e-15   4104.50 1 
  3951.94 8.1681e-15   4107.25 1 
  3954.58 7.6354e-15   4110.00 1 
  3957.23 7.1833e-15   4112.75 1 
  3959.88 7.2950e-15   4115.50 1 
  3962.52 6.7223e-15   4118.25 1 
  3965.17 5.5241e-15   4121.00 1 
  3967.81 5.2329e-15   4123.75 1 
  3970.46 5.0963e-15   4126.50 1 
  3973.11 5.1601e-15   4129.25 1 
  3975.75 5.8697e-15   4132.00 1 
  3978.40 6.8095e-15   4134.75 1 
  3981.04 6.9376e-15   4137.50 1 
  3983.69 7.7443e-15   4140.25 1 
  3986.34 7.8160e-15   4143.00 1 
  3988.98 7.5753e-15   4145.75 1 
  3991.63 8.6082e-15   4148.50 1 
  3994.27 8.3269e-15   4151.25 1 
  3996.92 8.7699e-15   4154.00 1 
  3999.57 8.7762e-15   4156.75 1 
  4002.21 9.0207e-15   4159.50 1 
  4004.86 9.3595e-15   4162.25 1 
  4007.51 8.9183e-15   4165.00 1 
  4010.15 8.0265e-15   4167.75 1 
  4012.80 9.0353e-15   4170.50 1 
  4015.44 9.9781e-15   4173.25 1 
  4018.09 9.4234e-15   4176.00 1 
  4020.74 8.9830e-15   4178.75 1 
  4023.38 9.7815e-15   4181.50 1 
  4026.03 9.3957e-15   4184.25 1 
  4028.67 9.5272e-15   4187.00 1 
  4031.32 9.2474e-15   4189.75 1 
  4033.97 9.2507e-15   4192.50 1 
  4036.61 8.7359e-15   4195.25 1 
  4039.26 9.1715e-15   4198.00 1 
  4041.90 9.5528e-15   4200.75 1 
  4044.55 8.7176e-15   4203.50 1 
  4047.20 9.1813e-15   4206.25 1 
  4049.84 8.6535e-15   4209.00 1 
  4052.49 8.7882e-15   4211.75 1 
  4055.13 8.7299e-15   4214.50 1 
  4057.78 9.0808e-15   4217.25 1 
  4060.43 9.6536e-15   4220.00 1 
  4063.07 9.5072e-15   4222.75 1 
  4065.72 8.9277e-15   4225.50 1 
  4068.36 8.4882e-15   4228.25 1 
  4071.01 8.6188e-15   4231.00 1 
  4073.66 8.7713e-15   4233.75 1 
  4076.30 8.8164e-15   4236.50 1 
  4078.95 8.4264e-15   4239.25 1 
  4081.59 8.5656e-15   4242.00 1 
  4084.24 8.5853e-15   4244.75 1 
  4086.89 8.3782e-15   4247.50 1 
  4089.53 8.8753e-15   4250.25 1 
  4092.18 8.1395e-15   4253.00 1 
  4094.82 8.1868e-15   4255.75 1 
  4097.47 7.2228e-15   4258.50 1 
  4100.12 7.1557e-15   4261.25 1 
  4102.76 6.9402e-15   4264.00 1 
  4105.41 6.3206e-15   4266.75 1 
  4108.05 6.9197e-15   4269.50 1 
  4110.70 7.2232e-15   4272.25 1 
  4113.35 8.1365e-15   4275.00 1 
  4115.99 8.4631e-15   4277.75 1 
  4118.64 8.9384e-15   4280.50 1 
  4121.28 9.0267e-15   4283.25 1 
  4123.93 9.0763e-15   4286.00 1 
  4126.58 8.8648e-15   4288.75 1 
  4129.22 9.0309e-15   4291.50 1 
  4131.87 9.0787e-15   4294.25 1 
  4134.51 8.4986e-15   4297.00 1 
  4137.16 8.5358e-15   4299.75 1 
  4139.81 9.3805e-15   4302.50 1 
  4142.45 9.1342e-15   4305.25 1 
  4145.10 9.3659e-15   4308.00 1 
  4147.74 8.9480e-15   4310.75 1 
  4150.39 8.9716e-15   4313.50 1 
  4153.04 9.1384e-15   4316.25 1 
  4155.68 9.2380e-15   4319.00 1 
  4158.33 9.5372e-15   4321.75 1 
  4160.97 9.4489e-15   4324.50 1 
  4163.62 9.4303e-15   4327.25 1 
  4166.27 9.9200e-15   4330.00 1 
  4168.91 9.7606e-15   4332.75 1 
  4171.56 9.0091e-15   4335.50 1 
  4174.20 9.1273e-15   4338.25 1 
  4176.85 8.9040e-15   4341.00 1 
  4179.50 9.1789e-15   4343.75 1 
  4182.14 8.6993e-15   4346.50 1 
  4184.79 8.6291e-15   4349.25 1 
  4187.43 8.9447e-15   4352.00 1 
  4190.08 9.4543e-15   4354.75 1 
  4192.73 9.4283e-15   4357.50 1 
  4195.37 8.7892e-15   4360.25 1 
  4198.02 8.6559e-15   4363.00 1 
  4200.66 8.3886e-15   4365.75 1 
  4203.31 8.6349e-15   4368.50 1 
  4205.96 9.1501e-15   4371.25 1 
  4208.60 9.2521e-15   4374.00 1 
  4211.25 9.1152e-15   4376.75 1 
  4213.89 9.3429e-15   4379.50 1 
  4216.54 9.3177e-15   4382.25 1 
  4219.19 9.2071e-15   4385.00 1 
  4221.83 9.3213e-15   4387.75 1 
  4224.48 9.0270e-15   4390.50 1 
  4227.12 8.9007e-15   4393.25 1 
  4229.77 8.5475e-15   4396.00 1 
  4232.42 8.7963e-15   4398.75 1 
  4235.06 9.4804e-15   4401.50 1 
  4237.71 9.3933e-15   4404.25 1 
  4240.35 9.2285e-15   4407.00 1 
  4243.00 9.2090e-15   4409.75 1 
  4245.65 9.2552e-15   4412.50 1 
  4248.29 9.3003e-15   4415.25 1 
  4250.94 9.0860e-15   4418.00 1 
  4253.58 9.1918e-15   4420.75 1 
  4256.23 9.4847e-15   4423.50 1 
  4258.88 9.5414e-15   4426.25 1 
  4261.52 9.4495e-15   4429.00 1 
  4264.17 9.4085e-15   4431.75 1 
  4266.81 8.9559e-15   4434.50 1 
  4269.46 9.0213e-15   4437.25 1 
  4272.11 9.2080e-15   4440.00 1 
  4274.75 8.9120e-15   4442.75 1 
  4277.40 8.8602e-15   4445.50 1 
  4280.04 9.1991e-15   4448.25 1 
  4282.69 9.0153e-15   4451.00 1 
  4285.34 8.7442e-15   4453.75 1 
  4287.98 8.8701e-15   4456.50 1 
  4290.63 8.9859e-15   4459.25 1 
  4293.27 8.6158e-15   4462.00 1 
  4295.92 8.4462e-15   4464.75 1 
  4298.57 8.3562e-15   4467.50 1 
  4301.21 7.9834e-15   4470.25 1 
  4303.86 7.7545e-15   4473.00 1 
  4306.50 8.1568e-15   4475.75 1 
  4309.15 8.2940e-15   4478.50 1 
  4311.80 8.2561e-15   4481.25 1 
  4314.44 8.5752e-15   4484.00 1 
  4317.09 8.9446e-15   4486.75 1 
  4319.73 9.1756e-15   4489.50 1 
  4322.38 9.0828e-15   4492.25 1 
  4325.03 8.9485e-15   4495.00 1 
  4327.67 8.4219e-15   4497.75 1 
  4330.32 8.2203e-15   4500.50 1 
  4332.96 8.3740e-15   4503.25 1 
  4335.61 8.4283e-15   4506.00 1 
  4338.26 8.3908e-15   4508.75 1 
  4340.90 7.7690e-15   4511.50 1 
  4343.55 7.9560e-15   4514.25 1 
  4346.19 8.0453e-15   4517.00 1 
  4348.84 8.2903e-15   4519.75 1 
  4351.49 8.1425e-15   4522.50 1 
  4354.13 8.4485e-15   4525.25 1 
  4356.78 8.7742e-15   4528.00 1 
  4359.42 9.3716e-15   4530.75 1 
  4362.07 9.5299e-15   4533.50 1 
  4364.72 9.5169e-15   4536.25 1 
  4367.36 9.5191e-15   4539.00 1 
  4370.01 9.6880e-15   4541.75 1 
  4372.65 9.4831e-15   4544.50 1 
  4375.30 9.2751e-15   4547.25 1 
  4377.95 9.3060e-15   4550.00 1 
  4380.59 9.5326e-15   4552.75 1 
  4383.24 8.9403e-15   4555.50 1 
  4385.88 8.6492e-15   4558.25 1 
  4388.53 8.7694e-15   4561.00 1 
  4391.18 9.6298e-15   4563.75 1 
  4393.82 9.4522e-15   4566.50 1 
  4396.47 9.3722e-15   4569.25 1 
  4399.11 9.3441e-15   4572.00 1 
  4401.76 9.4232e-15   4574.75 1 
  4404.41 8.9862e-15   4577.50 1 
  4407.05 9.2205e-15   4580.25 1 
  4409.70 9.5995e-15   4583.00 1 
  4412.34 9.4589e-15   4585.75 1 
  4414.99 9.4289e-15   4588.50 1 
  4417.64 9.2542e-15   4591.25 1 
  4420.28 9.5112e-15   4594.00 1 
  4422.93 9.5096e-15   4596.75 1 
  4425.57 9.5404e-15   4599.50 1 
  4428.22 9.7563e-15   4602.25 1 
  4430.87 9.6167e-15   4605.00 1 
  4433.51 9.4416e-15   4607.75 1 
  4436.16 9.6637e-15   4610.50 1 
  4438.80 9.6617e-15   4613.25 1 
  4441.45 9.9769e-15   4616.00 1 
  4444.10 9.6021e-15   4618.75 1 
  4446.74 9.7500e-15   4621.50 1 
  4449.39 1.0036e-14   4624.25 1 
  4452.04 1.0145e-14   4627.00 1 
  4454.68 9.3495e-15   4629.75 1 
  4457.33 9.7546e-15   4632.50 1 
  4459.97 9.4305e-15   4635.25 1 
  4462.62 9.7878e-15   4638.00 1 
  4465.27 8.8983e-15   4640.75 1 
  4467.91 9.0241e-15   4643.50 1 
  4470.56 9.4404e-15   4646.25 1 
  4473.20 9.8360e-15   4649.00 1 
  4475.85 1.0049e-14   4651.75 1 
  4478.50 1.0493e-14   4654.50 1 
  4481.14 1.0099e-14   4657.25 1 
  4483.79 9.6493e-15   4660.00 1 
  4486.43 9.9907e-15   4662.75 1 
  4489.08 1.0114e-14   4665.50 1 
  4491.73 1.0217e-14   4668.25 1 
  4494.37 9.9377e-15   4671.00 1 
  4497.02 9.8106e-15   4673.75 1 
  4499.66 1.0279e-14   4676.50 1 
  4502.31 1.0273e-14   4679.25 1 
  4504.96 1.0322e-14   4682.00 1 
  4507.60 1.0382e-14   4684.75 1 
  4510.25 1.0851e-14   4687.50 1 
  4512.89 1.0250e-14   4690.25 1 
  4515.54 1.0353e-14   4693.00 1 
  4518.19 1.0234e-14   4695.75 1 
  4520.83 1.0333e-14   4698.50 1 
  4523.48 9.9223e-15   4701.25 1 
  4526.12 9.1101e-15   4704.00 1 
  4528.77 9.6847e-15   4706.75 1 
  4531.42 9.0719e-15   4709.50 1 
  4534.06 9.3183e-15   4712.25 1 
  4536.71 9.0935e-15   4715.00 1 
  4539.35 9.3994e-15   4717.75 1 
  4542.00 9.6466e-15   4720.50 1 
  4544.65 1.0023e-14   4723.25 1 
  4547.29 9.5669e-15   4726.00 1 
  4549.94 9.9677e-15   4728.75 1 
  4552.58 9.9536e-15   4731.50 1 
  4555.23 9.9575e-15   4734.25 1 
  4557.88 1.0448e-14   4737.00 1 
  4560.52 9.7781e-15   4739.75 1 
  4563.17 1.0337e-14   4742.50 1 
  4565.81 1.0214e-14   4745.25 1 
  4568.46 1.0213e-14   4748.00 1 
  4571.11 1.0038e-14   4750.75 1 
  4573.75 1.0108e-14   4753.50 1 
  4576.40 1.0454e-14   4756.25 1 
  4579.04 9.9594e-15   4759.00 1 
  4581.69 9.8960e-15   4761.75 1 
  4584.34 9.8509e-15   4764.50 1 
  4586.98 9.7891e-15   4767.25 1 
  4589.63 9.7595e-15   4770.00 1 
  4592.27 1.0159e-14   4772.75 1 
  4594.92 9.6656e-15   4775.50 1 
  4597.57 1.0262e-14   4778.25 1 
  4600.21 9.8360e-15   4781.00 1 
  4602.86 1.0290e-14   4783.75 1 
  4605.50 1.0318e-14   4786.50 1 
  4608.15 1.0326e-14   4789.25 1 
  4610.80 9.9354e-15   4792.00 1 
  4613.44 9.7371e-15   4794.75 1 
  4616.09 1.0520e-14   4797.50 1 
  4618.73 1.0613e-14   4800.25 1 
  4621.38 9.9974e-15   4803.00 1 
  4624.03 1.0762e-14   4805.75 1 
  4626.67 1.0732e-14   4808.50 1 
  4629.32 1.0436e-14   4811.25 1 
  4631.96 1.0239e-14   4814.00 1 
  4634.61 1.0298e-14   4816.75 1 
  4637.26 9.6983e-15   4819.50 1 
  4639.90 1.0453e-14   4822.25 1 
  4642.55 1.0172e-14   4825.00 1 
  4645.19 9.8680e-15   4827.75 1 
  4647.84 9.9462e-15   4830.50 1 
  4650.49 9.9593e-15   4833.25 1 
  4653.13 1.0090e-14   4836.00 1 
  4655.78 9.9010e-15   4838.75 1 
  4658.42 1.0359e-14   4841.50 1 
  4661.07 1.0632e-14   4844.25 1 
  4663.72 1.0034e-14   4847.00 1 
  4666.36 1.0152e-14   4849.75 1 
  4669.01 9.2339e-15   4852.50 1 
  4671.65 9.7050e-15   4855.25 1 
  4674.30 9.9937e-15   4858.00 1 
  4676.95 1.0129e-14   4860.75 1 
  4679.59 1.0492e-14   4863.50 1 
  4682.24 9.5918e-15   4866.25 1 
  4684.88 1.0568e-14   4869.00 1 
  4687.53 1.0304e-14   4871.75 1 
  4690.18 1.0313e-14   4874.50 1 
  4692.82 1.0041e-14   4877.25 1 
  4695.47 1.0698e-14   4880.00 1 
  4698.11 9.7305e-15   4882.75 1 
  4700.76 1.0159e-14   4885.50 1 
  4703.41 9.8447e-15   4888.25 1 
  4706.05 1.0220e-14   4891.00 1 
  4708.70 9.6185e-15   4893.75 1 
  4711.34 1.0157e-14   4896.50 1 
  4713.99 9.6471e-15   4899.25 1 
  4716.64 9.8379e-15   4902.00 1 
  4719.28 1.0291e-14   4904.75 1 
  4721.93 1.0377e-14   4907.50 1 
  4724.57 1.0232e-14   4910.25 1 
  4727.22 1.0131e-14   4913.00 1 
  4729.87 1.0326e-14   4915.75 1 
  4732.51 9.7626e-15   4918.50 1 
  4735.16 9.4781e-15   4921.25 1 
  4737.80 1.0327e-14   4924.00 1 
  4740.45 1.0366e-14   4926.75 1 
  4743.10 1.0374e-14   4929.50 1 
  4745.74 1.0107e-14   4932.25 1 
  4748.39 1.0262e-14   4935.00 1 
  4751.03 1.0059e-14   4937.75 1 
  4753.68 1.0011e-14   4940.50 1 
  4756.33 9.9374e-15   4943.25 1 
  4758.97 9.8085e-15   4946.00 1 
  4761.62 9.9767e-15   4948.75 1 
  4764.26 9.5621e-15   4951.50 1 
  4766.91 9.5215e-15   4954.25 1 
  4769.56 9.7671e-15   4957.00 1 
  4772.20 1.0106e-14   4959.75 1 
  4774.85 1.0255e-14   4962.50 1 
  4777.49 1.0260e-14   4965.25 1 
  4780.14 1.0161e-14   4968.00 1 
  4782.79 9.9237e-15   4970.75 1 
  4785.43 9.9969e-15   4973.50 1 
  4788.08 1.0128e-14   4976.25 1 
  4790.72 9.2298e-15   4979.00 1 
  4793.37 9.9985e-15   4981.75 1 
  4796.02 9.9091e-15   4984.50 1 
  4798.66 1.0264e-14   4987.25 1 
  4801.31 1.0437e-14   4990.00 1 
  4803.95 1.0403e-14   4992.75 1 
  4806.60 9.9815e-15   4995.50 1 
  4809.25 1.0082e-14   4998.25 1 
  4811.89 1.0157e-14   5001.00 1 
  4814.54 1.0022e-14   5003.75 1 
  4817.18 1.0107e-14   5006.50 1 
  4819.83 1.0059e-14   5009.25 1 
  4822.48 1.0007e-14   5012.00 1 
  4825.12 9.8375e-15   5014.75 1 
  4827.77 9.7065e-15   5017.50 1 
  4830.41 9.7430e-15   5020.25 1 
  4833.06 9.8070e-15   5023.00 1 
  4835.71 9.7786e-15   5025.75 1 
  4838.35 9.6240e-15   5028.50 1 
  4841.00 9.1816e-15   5031.25 1 
  4843.64 9.7017e-15   5034.00 1 
  4846.29 9.0540e-15   5036.75 1 
  4848.94 9.0856e-15   5039.50 1 
  4851.58 9.1140e-15   5042.25 1 
  4854.23 8.9937e-15   5045.00 1 
  4856.87 9.3249e-15   5047.75 1 
  4859.52 9.5207e-15   5050.50 1 
  4862.17 9.6227e-15   5053.25 1 
  4864.81 9.9592e-15   5056.00 1 
  4867.46 9.0036e-15   5058.75 1 
  4870.10 8.4088e-15   5061.50 1 
  4872.75 8.6614e-15   5064.25 1 
  4875.40 9.0684e-15   5067.00 1 
  4878.04 8.8846e-15   5069.75 1 
  4880.69 9.3720e-15   5072.50 1 
  4883.33 9.7718e-15   5075.25 1 
  4885.98 9.4189e-15   5078.00 1 
  4888.63 9.1099e-15   5080.75 1 
  4891.27 9.5606e-15   5083.50 1 
  4893.92 9.7177e-15   5086.25 1 
  4896.56 9.6466e-15   5089.00 1 
  4899.21 9.6761e-15   5091.75 1 
  4901.86 9.8865e-15   5094.50 1 
  4904.50 9.6620e-15   5097.25 1 
  4907.15 1.0124e-14   5100.00 1 
  4909.80 9.9359e-15   5102.75 1 
  4912.44 9.9714e-15   5105.50 1 
  4915.09 9.7759e-15   5108.25 1 
  4917.73 9.7332e-15   5111.00 1 
  4920.38 9.8641e-15   5113.75 1 
  4923.03 9.7885e-15   5116.50 1 
  4925.67 9.7989e-15   5119.25 1 
  4928.32 1.0101e-14   5122.00 1 
  4930.96 9.9141e-15   5124.75 1 
  4933.61 9.9191e-15   5127.50 1 
  4936.26 9.8160e-15   5130.25 1 
  4938.90 9.7704e-15   5133.00 1 
  4941.55 9.8024e-15   5135.75 1 
  4944.19 1.0166e-14   5138.50 1 
  4946.84 1.0241e-14   5141.25 1 
  4949.49 1.0052e-14   5144.00 1 
  4952.13 1.0184e-14   5146.75 1 
  4954.78 1.0179e-14   5149.50 1 
  4957.42 1.0366e-14   5152.25 1 
  4960.07 1.0411e-14   5155.00 1 
  4962.72 1.0547e-14   5157.75 1 
  4965.36 9.8609e-15   5160.50 1 
  4968.01 9.7971e-15   5163.25 1 
  4970.65 9.7877e-15   5166.00 1 
  4973.30 1.0068e-14   5168.75 1 
  4975.95 1.0034e-14   5171.50 1 
  4978.59 9.3964e-15   5174.25 1 
  4981.24 9.7281e-15   5177.00 1 
  4983.88 9.4684e-15   5179.75 1 
  4986.53 9.5348e-15   5182.50 1 
  4989.18 9.9466e-15   5185.25 1 
  4991.82 9.6921e-15   5188.00 1 
  4994.47 9.9008e-15   5190.75 1 
  4997.11 9.6667e-15   5193.50 1 
  4999.76 9.6764e-15   5196.25 1 
  5002.41 9.9676e-15   5199.00 1 
  5005.05 1.0216e-14   5201.75 1 
  5007.70 1.0398e-14   5204.50 1 
  5010.34 1.0110e-14   5207.25 1 
  5012.99 9.8108e-15   5210.00 1 
  5015.64 9.2339e-15   5212.75 1 
  5018.28 9.6423e-15   5215.50 1 
  5020.93 9.5065e-15   5218.25 1 
  5023.57 9.5721e-15   5221.00 1 
  5026.22 9.6102e-15   5223.75 1 
  5028.87 9.8256e-15   5226.50 1 
  5031.51 9.7835e-15   5229.25 1 
  5034.16 9.5665e-15   5232.00 1 
  5036.80 9.3792e-15   5234.75 1 
  5039.45 9.3861e-15   5237.50 1 
  5042.10 9.5217e-15   5240.25 1 
  5044.74 9.7076e-15   5243.00 1 
  5047.39 9.5408e-15   5245.75 1 
  5050.03 9.7735e-15   5248.50 1 
  5052.68 9.5207e-15   5251.25 1 
  5055.33 9.8482e-15   5254.00 1 
  5057.97 9.8688e-15   5256.75 1 
  5060.62 9.7516e-15   5259.50 1 
  5063.26 9.9972e-15   5262.25 1 
  5065.91 1.0017e-14   5265.00 1 
  5068.56 1.0142e-14   5267.75 1 
  5071.20 9.7578e-15   5270.50 1 
  5073.85 1.0028e-14   5273.25 1 
  5076.49 9.8163e-15   5276.00 1 
  5079.14 9.6702e-15   5278.75 1 
  5081.79 9.6673e-15   5281.50 1 
  5084.43 9.8098e-15   5284.25 1 
  5087.08 9.6057e-15   5287.00 1 
  5089.72 9.5768e-15   5289.75 1 
  5092.37 9.9904e-15   5292.50 1 
  5095.02 9.3357e-15   5295.25 1 
  5097.66 9.5315e-15   5298.00 1 
  5100.31 9.3067e-15   5300.75 1 
  5102.95 9.3926e-15   5303.50 1 
  5105.60 9.4544e-15   5306.25 1 
  5108.25 9.7800e-15   5309.00 1 
  5110.89 9.7501e-15   5311.75 1 
  5113.54 9.5442e-15   5314.50 1 
  5116.18 9.8101e-15   5317.25 1 
  5118.83 9.5921e-15   5320.00 1 
  5121.48 9.7908e-15   5322.75 1 
  5124.12 9.5234e-15   5325.50 1 
  5126.77 9.6035e-15   5328.25 1 
  5129.41 9.5595e-15   5331.00 1 
  5132.06 9.2312e-15   5333.75 1 
  5134.71 9.6964e-15   5336.50 1 
  5137.35 9.8922e-15   5339.25 1 
  5140.00 9.6669e-15   5342.00 1 
  5142.64 9.3126e-15   5344.75 1 
  5145.29 9.3271e-15   5347.50 1 
  5147.94 9.1402e-15   5350.25 1 
  5150.58 9.5662e-15   5353.00 1 
  5153.23 9.4111e-15   5355.75 1 
  5155.87 9.8753e-15   5358.50 1 
  5158.52 1.0565e-14   5361.25 1 
  5161.17 1.0344e-14   5364.00 1 
  5163.81 1.0576e-14   5366.75 1 
  5166.46 1.1384e-14   5369.50 1 
  5169.10 1.0752e-14   5372.25 1 
  5171.75 9.4750e-15   5375.00 1 
  5174.40 8.9414e-15   5377.75 1 
  5177.04 8.7708e-15   5380.50 1 
  5179.69 9.3157e-15   5383.25 1 
  5182.33 8.8228e-15   5386.00 1 
  5184.98 8.7559e-15   5388.75 1 
  5187.63 8.6234e-15   5391.50 1 
  5190.27 8.9273e-15   5394.25 1 
  5192.92 9.4916e-15   5397.00 1 
  5195.56 9.7875e-15   5399.75 1 
  5198.21 1.0026e-14   5402.50 1 
  5200.86 9.9867e-15   5405.25 1 
  5203.50 9.8366e-15   5408.00 1 
  5206.15 9.6947e-15   5410.75 1 
  5208.79 9.1961e-15   5413.50 1 
  5211.44 9.2870e-15   5416.25 1 
  5214.09 9.8565e-15   5419.00 1 
  5216.73 9.4676e-15   5421.75 1 
  5219.38 9.4778e-15   5424.50 1 
  5222.02 9.8391e-15   5427.25 1 
  5224.67 1.0177e-14   5430.00 1 
  5227.32 9.6529e-15   5432.75 1 
  5229.96 9.6975e-15   5435.50 1 
  5232.61 9.8841e-15   5438.25 1 
  5235.25 9.5857e-15   5441.00 1 
  5237.90 9.5193e-15   5443.75 1 
  5240.55 9.7308e-15   5446.50 1 
  5243.19 9.7379e-15   5449.25 1 
  5245.84 9.8251e-15   5452.00 1 
  5248.48 1.0074e-14   5454.75 1 
  5251.13 1.0146e-14   5457.50 1 
  5253.78 9.6434e-15   5460.25 1 
  5256.42 9.5151e-15   5463.00 1 
  5259.07 9.2466e-15   5465.75 1 
  5261.71 9.3824e-15   5468.50 1 
  5264.36 8.8835e-15   5471.25 1 
  5267.01 9.1394e-15   5474.00 1 
  5269.65 8.8404e-15   5476.75 1 
  5272.30 8.6721e-15   5479.50 1 
  5274.94 9.5212e-15   5482.25 1 
  5277.59 9.6385e-15   5485.00 1 
  5280.24 9.6995e-15   5487.75 1 
  5282.88 9.4817e-15   5490.50 1 
  5285.53 9.7259e-15   5493.25 1 
  5288.17 1.0050e-14   5496.00 1 
  5290.82 1.0301e-14   5498.75 1 
  5293.47 1.0174e-14   5501.50 1 
  5296.11 1.0454e-14   5504.25 1 
  5298.76 1.0749e-14   5507.00 1 
  5301.40 1.0221e-14   5509.75 1 
  5304.05 9.8649e-15   5512.50 1 
  5306.70 9.6551e-15   5515.25 1 
  5309.34 9.7216e-15   5518.00 1 
  5311.99 1.0048e-14   5520.75 1 
  5314.63 1.0189e-14   5523.50 1 
  5317.28 9.8130e-15   5526.25 1 
  5319.93 1.0032e-14   5529.00 1 
  5322.57 1.0256e-14   5531.75 1 
  5325.22 9.6127e-15   5534.50 1 
  5327.86 9.6446e-15   5537.25 1 
  5330.51 1.0165e-14   5540.00 1 
  5333.16 9.7978e-15   5542.75 1 
  5335.80 9.3428e-15   5545.50 1 
  5338.45 9.8471e-15   5548.25 1 
  5341.09 1.0181e-14   5551.00 1 
  5343.74 9.5149e-15   5553.75 1 
  5346.39 9.6115e-15   5556.50 1 
  5349.03 9.8613e-15   5559.25 1 
  5351.68 9.3742e-15   5562.00 1 
  5354.33 1.0113e-14   5564.75 1 
  5356.97 1.0044e-14   5567.50 1 
  5359.62 9.8965e-15   5570.25 1 
  5362.26 9.8838e-15   5573.00 1 
  5364.91 9.8863e-15   5575.75 1 
  5367.56 9.9655e-15   5578.50 1 
  5370.20 9.4992e-15   5581.25 1 
  5372.85 9.7368e-15   5584.00 1 
  5375.49 9.3840e-15   5586.75 1 
  5378.14 9.7333e-15   5589.50 1 
  5380.79 9.9216e-15   5592.25 1 
  5383.43 9.8292e-15   5595.00 1 
  5386.08 9.5729e-15   5597.75 1 
  5388.72 9.6555e-15   5600.50 1 
  5391.37 9.8795e-15   5603.25 1 
  5394.02 9.1136e-15   5606.00 1 
  5396.66 9.5021e-15   5608.75 1 
  5399.31 9.6955e-15   5611.50 1 
  5401.95 9.8077e-15   5614.25 1 
  5404.60 9.8137e-15   5617.00 1 
  5407.25 1.0172e-14   5619.75 1 
  5409.89 9.5285e-15   5622.50 1 
  5412.54 9.8403e-15   5625.25 1 
  5415.18 9.6409e-15   5628.00 1 
  5417.83 9.4464e-15   5630.75 1 
  5420.48 1.0235e-14   5633.50 1 
  5423.12 1.0114e-14   5636.25 1 
  5425.77 1.0412e-14   5639.00 1 
  5428.41 9.8672e-15   5641.75 1 
  5431.06 9.7130e-15   5644.50 1 
  5433.71 1.0367e-14   5647.25 1 
  5436.35 9.4943e-15   5650.00 1 
  5439.00 9.9395e-15   5652.75 1 
  5441.64 1.0065e-14   5655.50 1 
  5444.29 1.0006e-14   5658.25 1 
  5446.94 1.0061e-14   5661.00 1 
  5449.58 9.9344e-15   5663.75 1 
  5452.23 9.9723e-15   5666.50 1 
  5454.87 9.8477e-15   5669.25 1 
  5457.52 1.0329e-14   5672.00 1 
  5460.17 9.6485e-15   5674.75 1 
  5462.81 9.8049e-15   5677.50 1 
  5465.46 1.0221e-14   5680.25 1 
  5468.10 9.9679e-15   5683.00 1 
  5470.75 1.0277e-14   5685.75 1 
  5473.40 9.9214e-15   5688.50 1 
  5476.04 9.3128e-15   5691.25 1 
  5478.69 9.0521e-15   5694.00 1 
  5481.33 8.8445e-15   5696.75 1 
  5483.98 9.7699e-15   5699.50 1 
  5486.63 9.6868e-15   5702.25 1 
  5489.27 9.9180e-15   5705.00 1 
  5491.92 9.5180e-15   5707.75 1 
  5494.56 9.5608e-15   5710.50 1 
  5497.21 1.0214e-14   5713.25 1 
  5499.86 1.0212e-14   5716.00 1 
  5502.50 1.0082e-14   5718.75 1 
  5505.15 9.7073e-15   5721.50 1 
  5507.79 9.8480e-15   5724.25 1 
  5510.44 9.9479e-15   5727.00 1 
  5513.09 9.9139e-15   5729.75 1 
  5515.73 9.7355e-15   5732.50 1 
  5518.38 9.9670e-15   5735.25 1 
  5521.02 9.8257e-15   5738.00 1 
  5523.67 9.8070e-15   5740.75 1 
  5526.32 9.6757e-15   5743.50 1 
  5528.96 9.8138e-15   5746.25 1 
  5531.61 1.0165e-14   5749.00 1 
  5534.25 9.5050e-15   5751.75 1 
  5536.90 9.9627e-15   5754.50 1 
  5539.55 1.0091e-14   5757.25 1 
  5542.19 1.0415e-14   5760.00 1 
  5544.84 1.0146e-14   5762.75 1 
  5547.48 1.0102e-14   5765.50 1 
  5550.13 9.9600e-15   5768.25 1 
  5552.78 1.0197e-14   5771.00 1 
  5555.42 1.0026e-14   5773.75 1 
  5558.07 9.8779e-15   5776.50 1 
  5560.71 9.8546e-15   5779.25 1 
  5563.36 9.7773e-15   5782.00 1 
  5566.01 9.9901e-15   5784.75 1 
  5568.65 1.0265e-14   5787.50 1 
  5571.30 1.0005e-14   5790.25 1 
  5573.94 9.8770e-15   5793.00 1 
  5576.59 1.0178e-14   5795.75 1 
  5579.24 9.8542e-15   5798.50 1 
  5581.88 9.2720e-15   5801.25 1 
  5584.53 1.0100e-14   5804.00 1 
  5587.17 9.9228e-15   5806.75 1 
  5589.82 9.5904e-15   5809.50 1 
  5592.47 9.9422e-15   5812.25 1 
  5595.11 9.5876e-15   5815.00 1 
  5597.76 1.0117e-14   5817.75 1 
  5600.40 9.5600e-15   5820.50 1 
  5603.05 9.8229e-15   5823.25 1 
  5605.70 9.6217e-15   5826.00 1 
  5608.34 1.0381e-14   5828.75 1 
  5610.99 9.9983e-15   5831.50 1 
  5613.63 9.5152e-15   5834.25 1 
  5616.28 9.9282e-15   5837.00 1 
  5618.93 9.9760e-15   5839.75 1 
  5621.57 9.4898e-15   5842.50 1 
  5624.22 9.4724e-15   5845.25 1 
  5626.86 9.7292e-15   5848.00 1 
  5629.51 9.8987e-15   5850.75 1 
  5632.16 9.8685e-15   5853.50 1 
  5634.80 9.8653e-15   5856.25 1 
  5637.45 9.9149e-15   5859.00 1 
  5640.09 9.5623e-15   5861.75 1 
  5642.74 9.5041e-15   5864.50 1 
  5645.39 9.9939e-15   5867.25 1 
  5648.03 9.7637e-15   5870.00 1 
  5650.68 9.7366e-15   5872.75 1 
  5653.32 9.7753e-15   5875.50 1 
  5655.97 9.4831e-15   5878.25 1 
  5658.62 9.7355e-15   5881.00 1 
  5661.26 9.1724e-15   5883.75 1 
  5663.91 9.0610e-15   5886.50 1 
  5666.55 9.1545e-15   5889.25 1 
  5669.20 9.9235e-15   5892.00 1 
  5671.85 1.0098e-14   5894.75 1 
  5674.49 9.5909e-15   5897.50 1 
  5677.14 9.7074e-15   5900.25 1 
  5679.78 9.8631e-15   5903.00 1 
  5682.43 9.8799e-15   5905.75 1 
  5685.08 9.4463e-15   5908.50 1 
  5687.72 9.9499e-15   5911.25 1 
  5690.37 9.4252e-15   5914.00 1 
  5693.01 9.7499e-15   5916.75 1 
  5695.66 9.5116e-15   5919.50 1 
  5698.31 9.7349e-15   5922.25 1 
  5700.95 9.9337e-15   5925.00 1 
  5703.60 9.8037e-15   5927.75 1 
  5706.24 9.4338e-15   5930.50 1 
  5708.89 9.1975e-15   5933.25 1 
  5711.54 8.9413e-15   5936.00 1 
  5714.18 8.6006e-15   5938.75 1 
  5716.83 9.7948e-15   5941.50 1 
  5719.47 1.0217e-14   5944.25 1 
  5722.12 1.0220e-14   5947.00 1 
  5724.77 1.0119e-14   5949.75 1 
  5727.41 1.0021e-14   5952.50 1 
  5730.06 1.0157e-14   5955.25 1 
  5732.70 1.0201e-14   5958.00 1 
  5735.35 1.0497e-14   5960.75 1 
  5738.00 1.0344e-14   5963.50 1 
  5740.64 1.0765e-14   5966.25 1 
  5743.29 1.0512e-14   5969.00 1 
  5745.93 1.0107e-14   5971.75 1 
  5748.58 9.7889e-15   5974.50 1 
  5751.23 1.0267e-14   5977.25 1 
  5753.87 9.9440e-15   5980.00 1 
  5756.52 1.0021e-14   5982.75 1 
  5759.16 1.0294e-14   5985.50 1 
  5761.81 9.8574e-15   5988.25 1 
  5764.46 1.0099e-14   5991.00 1 
  5767.10 9.5101e-15   5993.75 1 
  5769.75 9.6634e-15   5996.50 1 
  5772.39 1.0083e-14   5999.25 1 
  5775.04 9.8500e-15   6002.00 1 
  5777.69 9.6377e-15   6004.75 1 
  5780.33 9.6101e-15   6007.50 1 
  5782.98 9.1972e-15   6010.25 1 
  5785.62 8.9156e-15   6013.00 1 
  5788.27 9.4205e-15   6015.75 1 
  5790.92 9.2982e-15   6018.50 1 
  5793.56 1.0389e-14   6021.25 1 
  5796.21 9.8484e-15   6024.00 1 
  5798.85 1.0146e-14   6026.75 1 
  5801.50 1.0311e-14   6029.50 1 
  5804.15 9.6544e-15   6032.25 1 
  5806.79 9.9178e-15   6035.00 1 
  5809.44 9.6646e-15   6037.75 1 
  5812.09 9.3862e-15   6040.50 1 
  5814.73 1.0064e-14   6043.25 1 
  5817.38 9.9575e-15   6046.00 1 
  5820.02 1.0105e-14   6048.75 1 
  5822.67 9.9729e-15   6051.50 1 
  5825.32 1.0002e-14   6054.25 1 
  5827.96 1.0033e-14   6057.00 1 
  5830.61 9.6063e-15   6059.75 1 
  5833.25 9.7409e-15   6062.50 1 
  5835.90 1.0007e-14   6065.25 1 
  5838.55 1.0295e-14   6068.00 1 
  5841.19 9.7004e-15   6070.75 1 
  5843.84 9.9557e-15   6073.50 1 
  5846.48 9.9651e-15   6076.25 1 
  5849.13 9.4680e-15   6079.00 1 
  5851.78 1.0069e-14   6081.75 1 
  5854.42 9.7206e-15   6084.50 1 
  5857.07 9.5078e-15   6087.25 1 
  5859.71 9.8219e-15   6090.00 1 
  5862.36 9.5096e-15   6092.75 1 
  5865.01 9.8578e-15   6095.50 1 
  5867.65 1.0355e-14   6098.25 1 
  5870.30 1.0268e-14   6101.00 1 
  5872.94 9.8414e-15   6103.75 1 
  5875.59 9.9999e-15   6106.50 1 
  5878.24 1.0077e-14   6109.25 1 
  5880.88 9.2539e-15   6112.00 1 
  5883.53 9.1823e-15   6114.75 1 
  5886.17 8.9712e-15   6117.50 1 
  5888.82 8.7000e-15   6120.25 1 
  5891.47 8.8125e-15   6123.00 1 
  5894.11 8.3363e-15   6125.75 1 
  5896.76 8.8313e-15   6128.50 1 
  5899.40 9.0308e-15   6131.25 1 
  5902.05 9.3554e-15   6134.00 1 
  5904.70 9.4043e-15   6136.75 1 
  5907.34 9.6294e-15   6139.50 1 
  5909.99 9.5122e-15   6142.25 1 
  5912.63 9.9266e-15   6145.00 1 
  5915.28 9.7747e-15   6147.75 1 
  5917.93 9.2878e-15   6150.50 1 
  5920.57 9.7108e-15   6153.25 1 
  5923.22 1.0008e-14   6156.00 1 
  5925.86 9.6851e-15   6158.75 1 
  5928.51 9.6240e-15   6161.50 1 
  5931.16 9.7365e-15   6164.25 1 
  5933.80 9.7857e-15   6167.00 1 
  5936.45 9.7005e-15   6169.75 1 
  5939.09 9.6550e-15   6172.50 1 
  5941.74 9.6668e-15   6175.25 1 
  5944.39 9.6108e-15   6178.00 1 
  5947.03 9.5733e-15   6180.75 1 
  5949.68 9.5768e-15   6183.50 1 
  5952.32 9.5268e-15   6186.25 1 
  5954.97 9.3931e-15   6189.00 1 
  5957.62 9.4158e-15   6191.75 1 
  5960.26 9.6860e-15   6194.50 1 
  5962.91 9.7347e-15   6197.25 1 
  5965.55 9.8493e-15   6200.00 1 
  5968.20 9.9293e-15   6202.75 1 
  5970.85 9.9655e-15   6205.50 1 
  5973.49 9.8679e-15   6208.25 1 
  5976.14 9.6580e-15   6211.00 1 
  5978.78 9.6161e-15   6213.75 1 
  5981.43 9.6345e-15   6216.50 1 
  5984.08 9.5932e-15   6219.25 1 
  5986.72 9.4114e-15   6222.00 1 
  5989.37 9.5763e-15   6224.75 1 
  5992.01 9.9443e-15   6227.50 1 
  5994.66 1.0064e-14   6230.25 1 
  5997.31 1.0106e-14   6233.00 1 
  5999.95 9.6550e-15   6235.75 1 
  6002.60 9.1765e-15   6238.50 1 
  6005.24 9.1954e-15   6241.25 1 
  6007.89 9.1216e-15   6244.00 1 
  6010.54 9.6698e-15   6246.75 1 
  6013.18 1.0197e-14   6249.50 1 
  6015.83 1.0107e-14   6252.25 1 
  6018.47 1.0220e-14   6255.00 1 
  6021.12 9.7908e-15   6257.75 1 
  6023.77 9.4414e-15   6260.50 1 
  6026.41 9.6280e-15   6263.25 1 
  6029.06 1.0278e-14   6266.00 1 
  6031.70 9.9298e-15   6268.75 1 
  6034.35 9.8897e-15   6271.50 1 
  6037.00 9.8600e-15   6274.25 1 
  6039.64 9.9532e-15   6277.00 1 
  6042.29 1.0061e-14   6279.75 1 
  6044.93 1.0035e-14   6282.50 1 
  6047.58 9.5640e-15   6285.25 1 
  6050.23 1.0335e-14   6288.00 1 
  6052.87 1.0094e-14   6290.75 1 
  6055.52 1.0152e-14   6293.50 1 
  6058.16 9.7131e-15   6296.25 1 
  6060.81 1.0010e-14   6299.00 1 
  6063.46 9.4434e-15   6301.75 1 
  6066.10 9.8922e-15   6304.50 1 
  6068.75 9.8338e-15   6307.25 1 
  6071.39 9.6168e-15   6310.00 1 
  6074.04 9.8845e-15   6312.75 1 
  6076.69 1.0143e-14   6315.50 1 
  6079.33 9.8164e-15   6318.25 1 
  6081.98 9.8570e-15   6321.00 1 
  6084.62 9.6672e-15   6323.75 1 
  6087.27 9.9710e-15   6326.50 1 
  6089.92 9.5097e-15   6329.25 1 
  6092.56 9.2820e-15   6332.00 1 
  6095.21 9.2777e-15   6334.75 1 
  6097.85 9.6340e-15   6337.50 1 
  6100.50 9.6918e-15   6340.25 1 
  6103.15 9.5598e-15   6343.00 1 
  6105.79 9.9877e-15   6345.75 1 
  6108.44 9.5885e-15   6348.50 1 
  6111.08 1.0049e-14   6351.25 1 
  6113.73 9.9816e-15   6354.00 1 
  6116.38 9.9143e-15   6356.75 1 
  6119.02 1.0012e-14   6359.50 1 
  6121.67 9.5859e-15   6362.25 1 
  6124.31 9.6371e-15   6365.00 1 
  6126.96 9.4921e-15   6367.75 1 
  6129.61 9.6622e-15   6370.50 1 
  6132.25 9.7269e-15   6373.25 1 
  6134.90 9.2236e-15   6376.00 1 
  6137.54 9.3803e-15   6378.75 1 
  6140.19 9.7615e-15   6381.50 1 
  6142.84 9.5164e-15   6384.25 1 
  6145.48 9.6351e-15   6387.00 1 
  6148.13 9.6141e-15   6389.75 1 
  6150.77 9.8423e-15   6392.50 1 
  6153.42 9.5821e-15   6395.25 1 
  6156.07 9.4901e-15   6398.00 1 
  6158.71 9.4711e-15   6400.75 1 
  6161.36 9.3351e-15   6403.50 1 
  6164.00 9.0147e-15   6406.25 1 
  6166.65 8.9978e-15   6409.00 1 
  6169.30 9.0702e-15   6411.75 1 
  6171.94 9.0525e-15   6414.50 1 
  6174.59 9.4059e-15   6417.25 1 
  6177.23 9.3736e-15   6420.00 1 
  6179.88 9.0153e-15   6422.75 1 
  6182.53 9.3741e-15   6425.50 1 
  6185.17 9.7769e-15   6428.25 1 
  6187.82 9.5248e-15   6431.00 1 
  6190.46 9.4521e-15   6433.75 1 
  6193.11 9.0135e-15   6436.50 1 
  6195.76 9.5929e-15   6439.25 1 
  6198.40 9.6827e-15   6442.00 1 
  6201.05 8.9687e-15   6444.75 1 
  6203.69 9.2002e-15   6447.50 1 
  6206.34 9.5165e-15   6450.25 1 
  6208.99 9.6136e-15   6453.00 1 
  6211.63 9.0349e-15   6455.75 1 
  6214.28 9.4732e-15   6458.50 1 
  6216.92 9.4541e-15   6461.25 1 
  6219.57 9.3792e-15   6464.00 1 
  6222.22 9.4873e-15   6466.75 1 
  6224.86 8.7472e-15   6469.50 1 
  6227.51 8.5612e-15   6472.25 1 
  6230.15 9.1631e-15   6475.00 1 
  6232.80 9.0521e-15   6477.75 1 
  6235.45 9.5047e-15   6480.50 1 
  6238.09 1.0096e-14   6483.25 1 
  6240.74 9.7023e-15   6486.00 1 
  6243.38 9.2684e-15   6488.75 1 
  6246.03 9.0623e-15   6491.50 1 
  6248.68 9.7987e-15   6494.25 1 
  6251.32 9.5160e-15   6497.00 1 
  6253.97 8.6330e-15   6499.75 1 
  6256.62 8.2198e-15   6502.50 1 
  6259.26 8.3532e-15   6505.25 1 
  6261.91 9.0258e-15   6508.00 1 
  6264.55 9.2709e-15   6510.75 1 
  6267.20 9.4418e-15   6513.50 1 
  6269.85 9.3563e-15   6516.25 1 
  6272.49 9.4680e-15   6519.00 1 
  6275.14 9.3222e-15   6521.75 1 
  6277.78 8.8838e-15   6524.50 1 
  6280.43 8.8402e-15   6527.25 1 
  6283.08 9.3211e-15   6530.00 1 
  6285.72 8.6134e-15   6532.75 1 
  6288.37 8.9516e-15   6535.50 1 
  6291.01 9.0467e-15   6538.25 1 
  6293.66 9.3812e-15   6541.00 1 
  6296.31 9.7546e-15   6543.75 1 
  6298.95 9.5992e-15   6546.50 1 
  6301.60 1.0542e-14   6549.25 1 
  6304.24 9.8151e-15   6552.00 1 
  6306.89 9.8000e-15   6554.75 1 
  6309.54 8.7995e-15   6557.50 1 
  6312.18 9.7254e-15   6560.25 1 
  6314.83 9.6655e-15   6563.00 1 
  6317.47 9.3515e-15   6565.75 1 
  6320.12 9.1132e-15   6568.50 1 
  6322.77 9.3345e-15   6571.25 1 
  6325.41 8.8793e-15   6574.00 1 
  6328.06 9.3956e-15   6576.75 1 
  6330.70 9.1124e-15   6579.50 1 
  6333.35 9.3696e-15   6582.25 1 
  6336.00 9.7843e-15   6585.00 1 
  6338.64 9.2167e-15   6587.75 1 
  6341.29 9.2226e-15   6590.50 1 
  6343.93 9.4084e-15   6593.25 1 
  6346.58 9.2421e-15   6596.00 1 
  6349.23 8.9926e-15   6598.75 1 
  6351.87 9.6057e-15   6601.50 1 
  6354.52 9.1516e-15   6604.25 1 
  6357.16 8.8342e-15   6607.00 1 
  6359.81 8.8691e-15   6609.75 1 
  6362.46 8.9836e-15   6612.50 1 
  6365.10 9.7392e-15   6615.25 1 
  6367.75 9.2501e-15   6618.00 1 
  6370.39 9.3963e-15   6620.75 1 
  6373.04 9.8212e-15   6623.50 1 
  6375.69 9.7456e-15   6626.25 1 
  6378.33 9.2105e-15   6629.00 1 
  6380.98 9.0621e-15   6631.75 1 
  6383.62 9.2981e-15   6634.50 1 
  6386.27 9.4271e-15   6637.25 1 
  6388.92 9.5527e-15   6640.00 1 
  6391.56 9.7411e-15   6642.75 1 
  6394.21 9.6311e-15   6645.50 1 
  6396.85 9.4518e-15   6648.25 1 
  6399.50 8.7287e-15   6651.00 1 
  6402.15 8.9049e-15   6653.75 1 
  6404.79 9.5779e-15   6656.50 1 
  6407.44 9.2038e-15   6659.25 1 
  6410.08 9.0695e-15   6662.00 1 
  6412.73 9.2298e-15   6664.75 1 
  6415.38 8.8278e-15   6667.50 1 
  6418.02 9.1585e-15   6670.25 1 
  6420.67 9.1778e-15   6673.00 1 
  6423.31 9.6471e-15   6675.75 1 
  6425.96 9.4208e-15   6678.50 1 
  6428.61 9.0117e-15   6681.25 1 
  6431.25 9.0943e-15   6684.00 1 
  6433.90 8.9667e-15   6686.75 1 
  6436.54 9.5459e-15   6689.50 1 
  6439.19 9.8632e-15   6692.25 1 
  6441.84 9.6232e-15   6695.00 1 
  6444.48 9.7220e-15   6697.75 1 
  6447.13 9.5745e-15   6700.50 1 
  6449.77 9.8599e-15   6703.25 1 
  6452.42 9.7701e-15   6706.00 1 
  6455.07 9.3711e-15   6708.75 1 
  6457.71 9.2867e-15   6711.50 1 
  6460.36 9.3910e-15   6714.25 1 
  6463.00 9.3941e-15   6717.00 1 
  6465.65 9.0293e-15   6719.75 1 
  6468.30 8.9942e-15   6722.50 1 
  6470.94 9.4945e-15   6725.25 1 
  6473.59 9.3059e-15   6728.00 1 
  6476.23 9.2834e-15   6730.75 1 
  6478.88 9.0507e-15   6733.50 1 
  6481.53 1.0105e-14   6736.25 1 
  6484.17 9.7570e-15   6739.00 1 
  6486.82 9.8255e-15   6741.75 1 
  6489.46 9.4346e-15   6744.50 1 
  6492.11 9.3319e-15   6747.25 1 
  6494.76 9.2335e-15   6750.00 1 
  6497.40 9.1904e-15   6752.75 1 
  6500.05 8.7086e-15   6755.50 1 
  6502.69 8.5777e-15   6758.25 1 
  6505.34 9.0640e-15   6761.00 1 
  6507.99 9.1527e-15   6763.75 1 
  6510.63 9.5404e-15   6766.50 1 
  6513.28 9.1545e-15   6769.25 1 
  6515.92 9.4450e-15   6772.00 1 
  6518.57 9.2030e-15   6774.75 1 
  6521.22 9.0512e-15   6777.50 1 
  6523.86 9.4985e-15   6780.25 1 
  6526.51 9.2439e-15   6783.00 1 
  6529.15 9.7016e-15   6785.75 1 
  6531.80 9.8023e-15   6788.50 1 
  6534.45 9.2247e-15   6791.25 1 
  6537.09 9.2705e-15   6794.00 1 
  6539.74 9.2162e-15   6796.75 1 
  6542.38 1.0025e-14   6799.50 1 
  6545.03 1.0904e-14   6802.25 1 
  6547.68 1.1140e-14   6805.00 1 
  6550.32 1.1355e-14   6807.75 1 
  6552.97 1.1324e-14   6810.50 1 
  6555.61 1.1531e-14   6813.25 1 
  6558.26 1.3428e-14   6816.00 1 
  6560.91 1.6392e-14   6818.75 1 
  6563.55 1.9489e-14   6821.50 1 
  6566.20 2.0397e-14   6824.25 1 
  6568.84 1.7473e-14   6827.00 1 
  6571.49 1.3377e-14   6829.75 1 
  6580.50 8.5866e-15   6839.12 0 
  6595.67 9.3922e-15   6854.88 0 
  6610.88 9.2621e-15   6870.68 0 
  6626.12 9.4985e-15   6886.52 0 
  6641.39 9.0699e-15   6902.40 0 
  6656.70 9.3658e-15   6918.31 0 
  6672.05 9.1094e-15   6934.26 0 
  6687.43 9.1083e-15   6950.24 0 
  6702.84 9.0653e-15   6966.26 0 
  6718.30 9.1691e-15   6982.33 0 
  6733.78 9.1468e-15   6998.42 0 
  6749.30 9.0618e-15   7014.55 0 
  6764.86 9.2291e-15   7030.72 0 
  6780.46 9.2067e-15   7046.93 0 
  6796.09 9.1843e-15   7063.18 0 
  6811.75 9.1409e-15   7079.46 0 
  6827.46 9.1608e-15   7095.78 0 
  6843.20 9.2019e-15   7112.14 0 
  6858.97 9.0536e-15   7128.53 0 
  6874.79 9.0524e-15   7144.96 0 
  6890.63 8.8452e-15   7161.43 0 
  6906.52 9.0084e-15   7177.94 0 
  6922.44 9.0072e-15   7194.49 0 
  6938.40 9.1735e-15   7211.08 0 
  6954.39 9.0882e-15   7227.70 0 
  6970.42 9.1922e-15   7244.36 0 
  6986.49 8.7370e-15   7261.06 0 
  7002.60 9.1686e-15   7277.80 0 
  7018.74 9.0833e-15   7294.57 0 
  7034.92 9.0196e-15   7311.39 0 
  7051.14 9.2497e-15   7328.25 0 
  7067.39 8.8119e-15   7345.14 0 
  7083.68 9.0367e-15   7362.07 0 
  7100.01 8.6687e-15   7379.04 0 
  7116.38 8.6476e-15   7396.05 0 
  7132.78 8.6265e-15   7413.10 0 
  7149.23 8.7051e-15   7430.19 0 
  7165.71 8.7240e-15   7447.32 0 
  7182.22 8.5242e-15   7464.49 0 
  7198.78 8.2337e-15   7481.70 0 
  7215.38 8.3471e-15   7498.94 0 
  7232.01 8.6791e-15   7516.23 0 
  7248.68 8.6580e-15   7533.56 0 
  7265.39 8.8381e-15   7550.92 0 
  7282.14 8.6357e-15   7568.33 0 
  7298.93 8.2458e-15   7585.78 0 
  7315.75 8.6532e-15   7603.26 0 
  7332.62 8.7119e-15   7620.79 0 
  7349.52 9.0168e-15   7638.36 0 
  7366.47 8.9741e-15   7655.97 0 
  7383.45 9.0559e-15   7673.61 0 
  7400.46 8.9716e-15   7691.30 0 
  7417.53 8.8472e-15   7709.04 0 
  7434.63 9.2416e-15   7726.81 0 
  7451.76 8.9060e-15   7744.62 0 
  7468.94 8.7624e-15   7762.47 0 
  7486.16 9.1319e-15   7780.37 0 
  7503.42 8.8409e-15   7798.30 0 
  7520.71 9.1292e-15   7816.28 0 
  7538.05 9.0860e-15   7834.30 0 
  7555.43 9.1687e-15   7852.36 0 
  7572.84 9.0834e-15   7870.46 0 
  7590.30 9.1030e-15   7888.60 0 
  7607.80 8.9768e-15   7906.79 0 
  7625.34 8.7712e-15   7925.01 0 
  7642.92 8.9124e-15   7943.28 0 
  7660.53 8.6882e-15   7961.59 0 
  7678.19 8.5480e-15   7979.95 0 
  7695.90 8.6657e-15   7998.34 0 
  7713.64 8.6047e-15   8016.78 0 
  7731.42 8.5442e-15   8035.26 0 
  7749.24 8.4841e-15   8053.78 0 
  7767.10 8.4829e-15   8072.35 0 
  7785.01 8.3652e-15   8090.96 0 
  7802.95 8.5195e-15   8109.61 0 
  7820.94 8.6168e-15   8128.31 0 
  7838.97 8.4001e-15   8147.04 0 
  7857.04 8.5156e-15   8165.82 0 
  7875.16 8.6727e-15   8184.65 0 
  7893.31 8.6315e-15   8203.52 0 
  7911.50 8.4922e-15   8222.43 0 
  7929.74 8.3359e-15   8241.38 0 
  7948.02 8.1637e-15   8260.38 0 
  7966.34 8.2760e-15   8279.42 0 
  7984.71 8.4675e-15   8298.51 0 
  8003.12 8.2544e-15   8317.64 0 
  8021.56 8.5236e-15   8336.81 0 
  8040.06 8.6011e-15   8356.03 0 
  8058.59 8.5013e-15   8375.29 0 
  8077.17 8.3449e-15   8394.60 0 
  8095.79 8.4596e-15   8413.95 0 
  8114.45 8.4389e-15   8433.35 0 
  8133.16 8.5746e-15   8452.79 0 
  8151.90 8.3589e-15   8472.27 0 
  8170.69 7.7104e-15   8491.80 0 
  8189.53 8.1848e-15   8511.38 0 
  8208.41 8.0342e-15   8531.00 0 
  8227.33 8.4893e-15   8550.67 0 
  8246.30 8.5468e-15   8570.38 0 
  8265.31 8.2364e-15   8590.14 0 
  8284.36 8.0661e-15   8609.94 0 
  8303.46 8.1582e-15   8629.79 0 
  8322.60 8.3855e-15   8649.68 0 
  8341.79 8.0252e-15   8669.62 0 
  8361.01 8.4798e-15   8689.60 0 
  8380.29 8.3237e-15   8709.64 0 
  8399.61 8.1329e-15   8729.71 0 
  8418.97 8.3594e-15   8749.84 0 
  8438.38 8.4743e-15   8770.01 0 
  8457.83 8.1103e-15   8790.23 0 
  8477.33 7.7084e-15   8810.49 0 
  8496.87 8.2774e-15   8830.80 0 
  8516.46 8.2001e-15   8851.16 0 
  8536.09 8.0491e-15   8871.56 0 
  8555.77 6.9932e-15   8892.01 0 
  8575.49 8.2529e-15   8912.51 0 
  8595.26 8.1383e-15   8933.05 0 
  8615.07 8.0068e-15   8953.65 0 
  8634.94 8.2298e-15   8974.29 0 
  8654.84 8.1155e-15   8994.98 0 
  8674.79 6.5651e-15   9015.71 0 
  8694.79 7.9099e-15   9036.50 0 
  8714.83 8.0742e-15   9057.33 0 
  8734.92 8.2608e-15   9078.20 0 
  8755.06 7.9424e-15   9099.13 0 
  8775.24 7.9777e-15   9120.11 0 
  8795.47 8.2948e-15   9141.13 0 
  8815.74 7.3237e-15   9162.20 0 
  8836.07 8.0659e-15   9183.33 0 
  8856.44 8.0460e-15   9204.50 0 
  8876.85 7.2695e-15   9225.71 0 
  8897.32 7.8602e-15   9246.98 0 
  8917.83 7.9498e-15   9268.30 0 
  8938.38 7.7675e-15   9289.66 0 
  8958.99 7.7661e-15   9311.08 0 
  8979.64 7.5880e-15   9332.54 0 
  9000.34 6.6997e-15   9354.06 0 
  9021.09 7.0142e-15   9375.62 0 
  9041.89 8.0891e-15   9397.23 0 
  9062.73 8.2381e-15   9418.90 0 
  9083.62 8.0306e-15   9440.61 0 
  9104.56 7.9008e-15   9462.37 0 
  9125.55 7.5439e-15   9484.18 0 
  9146.59 7.3539e-15   9506.05 0 
  9167.67 7.7525e-15   9527.96 0 
  9188.81 7.8409e-15   9549.93 0 
  9209.99 7.8756e-15   9571.94 0 
  9231.22 7.6950e-15   9594.01 0 
  9252.50 7.5185e-15   9616.12 0 
  9273.83 7.8714e-15   9638.29 0 
  9295.21 7.4297e-15   9660.51 0 
  9316.64 7.7785e-15   9682.78 0 
  9338.11 7.7950e-15   9705.10 0 
  9359.64 7.7936e-15   9727.47 0 
  9381.22 7.7743e-15   9749.90 0 
  9402.84 7.6134e-15   9772.37 0 
  9424.51 7.8073e-15   9794.90 0 
  9446.24 7.7165e-15   9817.48 0 
  9468.02 7.8585e-15   9840.11 0 
  9489.84 7.8390e-15   9862.79 0 
  9511.72 7.6591e-15   9885.53 0 
  9533.65 7.6401e-15   9908.32 0 
  9555.62 7.2949e-15   9931.16 0 
  9577.65 7.6197e-15   9954.05 0 
  9599.73 7.7957e-15   9977.00 0 
  9621.86 7.7406e-15  10000.00 0 
  9644.04 7.6682e-15  10023.05 0 
  9666.27 7.6667e-15  10046.15 0 
  9688.55 7.7362e-15  10069.31 0 
  9710.90 7.6286e-15  10092.53 0 
  9733.28 7.5573e-15  10115.80 0 
  9755.72 7.5211e-15  10139.12 0 
  9778.20 7.5544e-15  10162.49 0 
  9800.74 7.4837e-15  10185.91 0 
  9823.33 7.5341e-15  10209.39 0 
  9845.99 7.5500e-15  10232.94 0 
  9868.68 7.4966e-15  10256.52 0 
  9891.43 7.4952e-15  10280.17 0 
  9914.23 7.4593e-15  10303.86 0 
  9937.08 7.5095e-15  10327.61 0 
  9959.99 7.5081e-15  10351.42 0 
  9982.95 7.4721e-15  10375.28 0 
 10029.04 7.4007e-15  10423.18 0 
 10075.32 7.2795e-15  10471.29 0 
 10121.83 7.4633e-15  10519.62 0 
 10168.55 7.3919e-15  10568.18 0 
 10215.49 7.4231e-15  10616.96 0 
 10286.29 7.4357e-15  10690.54 0 
 10310.01 7.4010e-15  10715.20 0 
 10501.69 7.1827e-15  10914.41 0 
 10696.93 6.9070e-15  11117.32 0 
 10895.80 6.6266e-15  11324.00 0 
 11098.36 6.4164e-15  11534.53 0 
 11304.71 6.2993e-15  11748.98 0 
 11488.39 6.2703e-15  11939.88 0 
 11701.97 6.1276e-15  12161.86 0 
 11892.11 5.9196e-15  12359.47 0 
 12113.20 5.8249e-15  12589.25 0 
 12310.03 5.7318e-15  12793.81 0 
 12510.05 5.5884e-15  13001.69 0 
 12713.32 5.4738e-15  13212.95 0 
 12890.18 5.3492e-15  13396.76 0 
 13099.63 5.2637e-15  13614.44 0 
 13312.48 5.1202e-15  13835.66 0 
 13497.67 5.0152e-15  14028.13 0 
 13685.45 4.9350e-15  14223.28 0 
 13907.82 4.7675e-15  14454.39 0 
 14101.29 4.5634e-15  14655.47 0 
 14297.46 4.5112e-15  14859.35 0 
 14496.36 4.5216e-15  15066.07 0 
 14698.03 4.3781e-15  15275.66 0 
 14902.50 4.4288e-15  15488.17 0 
 15109.82 4.4390e-15  15703.63 0 
 15284.78 4.5008e-15  15885.48 0 
 15497.40 4.4698e-15  16106.45 0 
 15712.99 4.3781e-15  16330.51 0 
 15894.94 4.2198e-15  16519.62 0 
 16116.07 4.2393e-15  16749.43 0 
 16302.69 4.2295e-15  16943.38 0 
 16491.47 4.1619e-15  17139.58 0 
 16682.41 4.1523e-15  17338.03 0 
 16914.49 4.0859e-15  17579.23 0 
 17110.36 4.0206e-15  17782.79 0 
 17308.49 3.8662e-15  17988.71 0 
 17508.92 3.7695e-15  18197.02 0 
 17711.65 3.6248e-15  18407.71 0 
 17916.74 3.4937e-15  18620.87 0 
 18082.53 3.3288e-15  18793.18 0 
 18291.90 3.2530e-15  19010.77 0 
 18503.72 3.1498e-15  19230.91 0 
 18717.98 3.0150e-15  19453.60 0 
 18891.19 2.9464e-15  19633.61 0 
 19109.92 2.8993e-15  19860.94 0 
 19286.75 2.8073e-15  20044.72 0 
 19510.09 2.6995e-15  20276.83 0 
 19690.60 2.6260e-15  20464.44 0 
 19918.61 2.5485e-15  20701.41 0 
 20102.92 2.5078e-15  20892.97 0 
 20288.92 2.4282e-15  21086.28 0 
 20476.66 2.4004e-15  21281.39 0 
 20713.77 2.3458e-15  21527.83 0 
 20905.42 2.2977e-15  21727.01 0 
 21098.87 2.2609e-15  21928.05 0 
 21294.08 2.2146e-15  22130.94 0 
 21491.12 2.1692e-15  22335.72 0 
 21689.98 2.0955e-15  22542.40 0 
 21890.66 2.0668e-15  22750.97 0 
 22093.23 2.0151e-15  22961.49 0 
 22297.64 1.9551e-15  23173.93 0 
 22503.97 1.8991e-15  23388.37 0 
 22712.20 1.8402e-15  23604.79 0 
 22922.34 1.6526e-15  23823.19 0 
 23081.24 1.6334e-15  23988.34 0 
 23294.80 1.4365e-15  24210.28 0 
 23510.35 1.3473e-15  24434.31 0 
 23673.30 1.3562e-15  24603.66 0 
 23892.36 1.2457e-15  24831.33 0 
 24113.44 1.1980e-15  25061.10 0 
 24280.58 1.1755e-15  25234.80 0 
 24505.25 1.0894e-15  25468.31 0 
 24552.39 9.0041e-16  25517.30 2 
 24645.43 9.5052e-16  25614.00 2 
 24738.57 9.1274e-16  25710.80 2 
 24831.71 9.0980e-16  25807.60 2 
 24924.76 9.3923e-16  25904.30 2 
 25017.90 8.9015e-16  26001.10 2 
 25111.04 8.7789e-16  26097.90 2 
 25204.08 8.3489e-16  26194.60 2 
 25297.22 8.5576e-16  26291.40 2 
 25390.26 9.0792e-16  26388.10 2 
 25483.40 9.2886e-16  26484.90 2 
 25576.54 9.3771e-16  26581.70 2 
 25669.59 9.2160e-16  26678.40 2 
 25762.73 9.3709e-16  26775.20 2 
 25855.86 9.2034e-16  26872.00 2 
 25948.91 9.2040e-16  26968.70 2 
 26042.05 9.1928e-16  27065.50 2 
 26135.19 9.2299e-16  27162.30 2 
 26228.23 8.8017e-16  27259.00 2 
 26321.37 8.7002e-16  27355.80 2 
 26414.41 8.6255e-16  27452.50 2 
 26507.55 8.5841e-16  27549.30 2 
 26600.69 7.8571e-16  27646.10 2 
 26693.74 8.2107e-16  27742.80 2 
 26786.88 8.5911e-16  27839.60 2 
 26880.01 8.2106e-16  27936.40 2 
 26973.06 8.1482e-16  28033.10 2 
 27066.20 8.5081e-16  28129.90 2 
 27159.24 8.6958e-16  28226.60 2 
 27252.38 8.1660e-16  28323.40 2 
 27345.52 7.6941e-16  28420.20 2 
 27438.56 7.2662e-16  28516.90 2 
 27531.71 7.8766e-16  28613.70 2 
 27624.84 7.5754e-16  28710.50 2 
 27717.89 7.7055e-16  28807.20 2 
 27811.03 7.6932e-16  28904.00 2 
 27904.07 7.7176e-16  29000.70 2 
 27997.21 7.3935e-16  29097.50 2 
 28090.35 7.1741e-16  29194.30 2 
 28183.39 6.9440e-16  29291.00 2 
 28276.53 6.6608e-16  29387.80 2 
 28369.67 6.4358e-16  29484.60 2 
 28462.71 6.1714e-16  29581.30 2 
 28555.85 6.2666e-16  29678.10 2 
 28648.90 6.3085e-16  29774.80 2 
 28742.04 6.2977e-16  29871.60 2 
 28835.18 6.0625e-16  29968.40 2 
 28928.22 6.1496e-16  30065.10 2 
 29021.36 6.1146e-16  30161.90 2 
 29114.50 6.0540e-16  30258.70 2 
 29207.54 5.8136e-16  30355.40 2 
 29300.68 5.7649e-16  30452.20 2 
 29393.73 5.8351e-16  30548.90 2 
 29486.87 5.5597e-16  30645.70 2 
 29580.01 5.4078e-16  30742.50 2 
 29673.05 5.4643e-16  30839.20 2 
 29766.19 5.4151e-16  30936.00 2 
 29859.33 5.3381e-16  31032.80 2 
 29952.37 5.4719e-16  31129.50 2 
 30045.51 5.2204e-16  31226.30 2 
 30138.55 5.6057e-16  31323.00 2 
 30231.69 5.4459e-16  31419.80 2 
 30324.83 5.4747e-16  31516.60 2 
 30417.88 5.5831e-16  31613.30 2 
 30511.02 5.6381e-16  31710.10 2 
 30604.16 5.2601e-16  31806.90 2 
 30697.20 5.1273e-16  31903.60 2 
 30790.34 5.2848e-16  32000.40 2 
 30883.38 5.3819e-16  32097.10 2 
 30976.52 5.2763e-16  32193.90 2 
 31069.66 4.9359e-16  32290.70 2 
 31162.71 5.0251e-16  32387.40 2 
 31255.84 5.2745e-16  32484.20 2 
 31348.98 5.4435e-16  32581.00 2 
 31442.03 5.3254e-16  32677.70 2 
 31535.17 5.0705e-16  32774.50 2 
 31628.21 5.1203e-16  32871.20 2 
 31721.35 5.2626e-16  32968.00 2 
 31814.49 5.5808e-16  33064.80 2 
 31907.53 5.7638e-16  33161.50 2 
 32000.67 5.8218e-16  33258.30 2 
 32093.81 6.0429e-16  33355.10 2 
 32186.86 6.1194e-16  33451.80 2 
 32280.00 6.5262e-16  33548.60 2 
 32373.04 7.2357e-16  33645.30 2 
 32466.18 6.8146e-16  33742.10 2 
 32559.32 7.0774e-16  33838.90 2 
 32652.36 7.0672e-16  33935.60 2 
 32745.50 7.2594e-16  34032.40 2 
 32838.64 6.8291e-16  34129.20 2 
 32931.68 6.9735e-16  34225.90 2 
 33024.82 6.6623e-16  34322.70 2 
 33117.87 6.7310e-16  34419.40 2 
 33211.01 6.3209e-16  34516.20 2 
 33304.15 6.3588e-16  34613.00 2 
 33397.19 6.6048e-16  34709.70 2 
 33490.33 6.0410e-16  34806.50 2 
 33583.47 5.9611e-16  34903.30 2 
 33676.51 6.0552e-16  35000.00 2 
 33769.65 5.6887e-16  35096.80 2 
 33862.70 5.7742e-16  35193.50 2 
 33955.84 5.6598e-16  35290.30 2 
 34048.98 5.4086e-16  35387.10 2 
 34142.02 5.5787e-16  35483.80 2 
 34235.16 5.5880e-16  35580.60 2 
 34328.30 5.1602e-16  35677.40 2 
 34421.34 4.9090e-16  35774.10 2 
 34514.48 4.9390e-16  35870.90 2 
 34607.53 4.8743e-16  35967.60 2 
 34700.67 4.4592e-16  36064.40 2 
 34793.80 4.5760e-16  36161.20 2 
 34886.85 4.7363e-16  36257.90 2 
 34979.99 4.7933e-16  36354.70 2 
 35073.13 4.4425e-16  36451.50 2 
 35166.17 4.2737e-16  36548.20 2 
 35259.31 4.2641e-16  36645.00 2 
 35352.35 4.4390e-16  36741.70 2 
 35445.49 4.2753e-16  36838.50 2 
 35538.63 4.3560e-16  36935.30 2 
 35631.68 3.7964e-16  37032.00 2 
 35724.82 3.8789e-16  37128.80 2 
 35817.95 4.0264e-16  37225.60 2 
 35911.00 4.0808e-16  37322.30 2 
 36004.14 3.9551e-16  37419.10 2 
 36097.18 4.1215e-16  37515.80 2 
 36190.32 3.9132e-16  37612.60 2 
 36283.46 3.9343e-16  37709.40 2 
 36376.50 3.8151e-16  37806.10 2 
 36469.65 3.8099e-16  37902.90 2 
 36562.78 4.0553e-16  37999.70 2 
 36655.82 4.1351e-16  38096.40 2 
 36748.96 4.2115e-16  38193.20 2 
 36842.01 4.1810e-16  38289.90 2 
 36935.15 3.8896e-16  38386.70 2 
 37028.29 3.8144e-16  38483.50 2 
 37121.33 3.6845e-16  38580.20 2 
 37214.47 3.6911e-16  38677.00 2 
 37307.61 3.7777e-16  38773.80 2 
 37400.65 3.8116e-16  38870.50 2 
 37493.79 3.8419e-16  38967.30 2 
 37586.84 3.8867e-16  39064.00 2 
 37679.98 3.8082e-16  39160.80 2 
 37773.12 3.6161e-16  39257.60 2 
 37866.16 3.2795e-16  39354.30 2 
 37959.30 3.6696e-16  39451.10 2 
 38052.44 3.4897e-16  39547.90 2 
 38145.48 3.2351e-16  39644.60 2 
 38238.62 3.1961e-16  39741.40 2 
 38331.66 3.3343e-16  39838.10 2 
 38424.80 3.4506e-16  39934.90 2 
 38517.94 3.4852e-16  40031.70 2 
 38610.99 3.4199e-16  40128.40 2 
 38704.13 3.3606e-16  40225.20 2 
 38797.27 3.5455e-16  40322.00 2 
 38890.31 3.2998e-16  40418.70 2 
 38983.45 3.4975e-16  40515.50 2 
 39076.50 3.4048e-16  40612.20 2 
 39169.63 3.3620e-16  40709.00 2 
 39262.77 3.4017e-16  40805.80 2 
 39355.82 3.4735e-16  40902.50 2 
 39448.95 3.4961e-16  40999.30 2 
 39542.10 3.2816e-16  41096.10 2 
 39635.14 3.2929e-16  41192.80 2 
 39728.28 3.1623e-16  41289.60 2 
 39821.32 3.3281e-16  41386.30 2 
 39914.46 3.4728e-16  41483.10 2 
 40007.60 3.3697e-16  41579.90 2 
 40100.65 3.2660e-16  41676.60 2 
 40193.78 3.2778e-16  41773.40 2 
 40286.92 3.0031e-16  41870.20 2 
 40379.97 2.9781e-16  41966.90 2 
 40473.11 2.9628e-16  42063.70 2 
 40566.15 3.2567e-16  42160.40 2 
 40659.29 3.1532e-16  42257.20 2 
 40752.43 3.1473e-16  42354.00 2 
 40845.47 3.1681e-16  42450.70 2 
 40938.61 3.2108e-16  42547.50 2 
 41031.75 3.1748e-16  42644.30 2 
 41124.80 3.1224e-16  42741.00 2 
 41217.94 3.0319e-16  42837.80 2 
 41310.98 3.1256e-16  42934.50 2 
 41404.12 2.9562e-16  43031.30 2 
 41497.26 3.1123e-16  43128.10 2 
 41590.30 2.7721e-16  43224.80 2 
 41683.44 2.5856e-16  43321.60 2 
 41776.58 2.8486e-16  43418.40 2 
 41869.63 2.7537e-16  43515.10 2 
 41962.76 2.8217e-16  43611.90 2 
 42055.81 2.9310e-16  43708.60 2 
 42148.94 2.7048e-16  43805.40 2 
 42242.09 2.5917e-16  43902.20 2 
 42335.13 2.5745e-16  43998.90 2 
 42428.27 2.5540e-16  44095.70 2 
 42521.41 2.4612e-16  44192.50 2 
 42614.45 2.3100e-16  44289.20 2 
 42707.59 2.2255e-16  44386.00 2 
 42800.63 2.4529e-16  44482.70 2 
 42893.77 2.6970e-16  44579.50 2 
 42986.92 2.5933e-16  44676.30 2 
 43079.96 2.1979e-16  44773.00 2 
 43173.10 2.1973e-16  44869.80 2 
 43266.14 2.1769e-16  44966.50 2 
 43359.28 2.2821e-16  45063.30 2 
 43452.42 2.4768e-16  45160.10 2 
 43545.46 2.3631e-16  45256.80 2 
 43638.60 2.1756e-16  45353.60 2 
 43731.74 2.1091e-16  45450.40 2 
 43824.78 2.2262e-16  45547.10 2 
 43917.93 2.3261e-16  45643.90 2 
 44011.06 2.3028e-16  45740.70 2 
 44104.11 2.1534e-16  45837.40 2 
 44197.25 2.0590e-16  45934.20 2 
 44290.29 2.2811e-16  46030.90 2 
 44383.43 2.1297e-16  46127.70 2 
 44476.57 1.8615e-16  46224.50 2 
 44569.62 1.8952e-16  46321.20 2 
 44662.75 2.1689e-16  46418.00 2 
 44755.89 2.3512e-16  46514.80 2 
 44848.94 2.2962e-16  46611.50 2 
 44942.07 1.9739e-16  46708.30 2 
 45035.12 1.9133e-16  46805.00 2 
 45128.26 1.8371e-16  46901.80 2 
 45221.40 1.8078e-16  46998.60 2 
 45314.44 1.6892e-16  47095.30 2 
 45407.58 1.6886e-16  47192.10 2 
 45500.72 1.7463e-16  47288.90 2 
 45593.77 1.7601e-16  47385.60 2 
 45686.90 1.5138e-16  47482.40 2 
 45779.95 1.5608e-16  47579.10 2 
 45873.09 1.8418e-16  47675.90 2 
 45966.23 2.0704e-16  47772.70 2 
 46059.27 2.1591e-16  47869.40 2 
 46152.41 2.0946e-16  47966.20 2 
 46245.46 1.8404e-16  48062.90 2 
 46338.59 1.6754e-16  48159.70 2 
 46431.74 1.6110e-16  48256.50 2 
 46524.78 1.7633e-16  48353.20 2 
 46617.91 1.8215e-16  48450.00 2 
 46711.06 1.8528e-16  48546.80 2 
 46804.10 1.9356e-16  48643.50 2 
 46897.24 2.3000e-16  48740.30 2 
 46990.38 2.3133e-16  48837.10 2 
 47083.42 2.2632e-16  48933.80 2 
 47176.56 2.0549e-16  49030.60 2 
 47269.61 1.9879e-16  49127.30 2 
 47362.75 1.8741e-16  49224.10 2 
 47455.88 1.6343e-16  49320.90 2 
 47548.93 1.2946e-16  49417.60 2 
 47642.07 1.2346e-16  49514.40 2 
 47736.17 1.5640e-16  49612.20 2 
 48213.53 1.5633e-16  50108.32 0 
 48695.67 1.5627e-16  50609.41 0 
 49182.62 1.5620e-16  51115.50 0 
 49674.45 1.5613e-16  51626.66 0 
 50171.19 1.5606e-16  52142.92 0 
 50199.65 1.5606e-16  52172.50 3 
 50490.62 1.6163e-16  52474.90 3 
 50781.58 1.6366e-16  52777.30 3 
 51072.55 1.7581e-16  53079.70 3 
 51363.52 1.7206e-16  53382.10 3 
 51654.58 1.8288e-16  53684.60 3 
 51945.54 2.0174e-16  53987.00 3 
 52236.50 2.4030e-16  54289.40 3 
 52527.47 2.3867e-16  54591.80 3 
 52818.43 1.9031e-16  54894.20 3 
 53109.50 2.2349e-16  55196.70 3 
 53400.46 2.4295e-16  55499.10 3 
 53691.43 2.0611e-16  55801.50 3 
 53982.39 1.7168e-16  56103.90 3 
 54273.35 1.7703e-16  56406.30 3 
 54564.42 1.7172e-16  56708.80 3 
 54855.38 1.7618e-16  57011.20 3 
 55146.35 2.1284e-16  57313.60 3 
 55437.31 2.1032e-16  57616.00 3 
 55728.28 2.0683e-16  57918.40 3 
 56019.34 2.3673e-16  58220.90 3 
 56310.31 2.6794e-16  58523.30 3 
 56601.27 2.9619e-16  58825.70 3 
 56892.23 2.9973e-16  59128.10 3 
 57183.20 3.0911e-16  59430.50 3 
 57474.26 2.8888e-16  59733.00 3 
 57765.23 2.6715e-16  60035.40 3 
 58056.19 2.5038e-16  60337.80 3 
 58347.16 2.4915e-16  60640.20 3 
 58638.12 2.5984e-16  60942.60 3 
 58929.18 2.5859e-16  61245.10 3 
 59220.15 2.5123e-16  61547.50 3 
 59511.11 2.5342e-16  61849.90 3 
 59802.08 2.8503e-16  62152.30 3 
 60093.04 3.3419e-16  62454.70 3 
 60384.11 3.6250e-16  62757.20 3 
 60675.07 3.6755e-16  63059.60 3 
 60966.04 3.9430e-16  63362.00 3 
 61257.00 4.8270e-16  63664.40 3 
 61547.96 6.5564e-16  63966.80 3 
 61839.03 9.4244e-16  64269.30 3 
 62129.99 1.1116e-15  64571.70 3 
 62420.96 1.0730e-15  64874.10 3 
 62711.92 8.9931e-16  65176.50 3 
 63002.89 7.5188e-16  65478.90 3 
 63293.95 6.3924e-16  65781.40 3 
 63584.91 5.5267e-16  66083.80 3 
 63875.87 4.8587e-16  66386.20 3 
 64166.84 4.4564e-16  66688.60 3 
 64457.81 4.1011e-16  66991.00 3 
 64748.87 3.7825e-16  67293.50 3 
 65039.83 3.7394e-16  67595.90 3 
 65330.80 3.6212e-16  67898.30 3 
 65621.76 3.4751e-16  68200.70 3 
 65912.73 3.5493e-16  68503.10 3 
 66203.79 3.6738e-16  68805.60 3 
 66494.76 3.6626e-16  69108.00 3 
 66785.72 3.6111e-16  69410.40 3 
 67076.69 3.6020e-16  69712.80 3 
 67367.65 3.6287e-16  70015.20 3 
 67658.72 3.5930e-16  70317.70 3 
 67949.68 3.5613e-16  70620.10 3 
 68240.64 3.5690e-16  70922.50 3 
 68531.61 3.8365e-16  71224.90 3 
 68822.57 4.2173e-16  71527.30 3 
 69113.63 4.5331e-16  71829.80 3 
 69404.60 4.4938e-16  72132.20 3 
 69695.57 5.3063e-16  72434.60 3 
 69986.53 6.2033e-16  72737.00 3 
 70277.49 5.0823e-16  73039.40 3 
 70568.55 4.7003e-16  73341.90 3 
 70859.52 4.6279e-16  73644.30 3 
 71150.49 4.6405e-16  73946.70 3 
 71441.45 4.7156e-16  74249.10 3 
 71732.42 4.7100e-16  74551.50 3 
 72023.48 4.8812e-16  74854.00 3 
 72314.44 4.5963e-16  75156.40 3 
 72605.40 5.1918e-16  75458.80 3 
 72896.37 5.2155e-16  75761.20 3 
 73478.30 5.9757e-16  76366.00 3 
 74060.33 7.1419e-16  76970.90 3 
 74642.25 8.5611e-16  77575.70 3 
 75224.19 1.0130e-15  78180.50 3 
 75806.21 1.1490e-15  78785.40 3 
 76388.15 1.1807e-15  79390.20 3 
 76970.17 1.1164e-15  79995.10 3 
 77552.10 1.1015e-15  80599.90 3 
 78134.04 1.0774e-15  81204.70 3 
 78716.05 1.0256e-15  81809.59 3 
 79297.99 9.1584e-16  82414.40 3 
 79879.92 8.0056e-16  83019.20 3 
 80461.94 7.0949e-16  83624.09 3 
 81043.87 6.1836e-16  84228.90 3 
 81625.80 5.6780e-16  84833.70 3 
 82207.83 5.4713e-16  85438.60 3 
 82789.76 5.3605e-16  86043.40 3 
 83371.79 5.3816e-16  86648.30 3 
 83953.72 5.2915e-16  87253.10 3 
 84535.66 5.3445e-16  87857.91 3 
 85117.68 5.6088e-16  88462.80 3 
 85699.61 5.7912e-16  89067.60 3 
 86281.54 5.5424e-16  89672.41 3 
 86863.56 4.9020e-16  90277.30 3 
 87445.49 4.0530e-16  90882.10 3 
 88027.42 3.3094e-16  91486.90 3 
 88609.45 2.7237e-16  92091.80 3 
 89191.38 2.2608e-16  92696.60 3 
 89773.41 2.0564e-16  93301.50 3 
 90355.33 1.8479e-16  93906.30 3 
 90937.27 1.6683e-16  94511.10 3 
 91519.28 1.5358e-16  95115.99 3 
 92101.22 1.4184e-16  95720.80 3 
 92683.15 1.3467e-16  96325.60 3 
 93265.18 1.2848e-16  96930.50 3 
 93847.11 1.2397e-16  97535.30 3 
 94429.03 1.1669e-16  98140.09 3 
 95011.07 1.1244e-16  98745.00 3 
 95593.00 1.1076e-16  99349.80 3 
 96175.02 1.1693e-16  99954.70 3 
 96756.95 1.2477e-16 100559.50 3 
 97338.89 1.0732e-16 101164.30 3 
 97920.91 9.6253e-17 101769.20 3 
 98502.84 9.1253e-17 102374.00 3 
 99084.77 9.1748e-17 102978.80 3 
 99666.79 9.1981e-17 103583.70 3 
100248.73 9.1163e-17 104188.50 3 
100830.65 9.2961e-17 104793.30 3 
101412.68 9.2773e-17 105398.20 3 
101994.61 9.2113e-17 106003.00 3 
102576.64 9.3148e-17 106607.91 3 
103158.56 9.3185e-17 107212.70 3 
103740.50 9.6233e-17 107817.50 3 
104322.53 1.0129e-16 108422.41 3 
104904.46 1.1306e-16 109027.20 3 
105486.39 1.2410e-16 109632.00 3 
106068.41 1.2721e-16 110236.90 3 
106650.34 1.2787e-16 110841.70 3 
107232.28 1.3292e-16 111446.51 3 
107814.30 1.3626e-16 112051.40 3 
108396.23 1.3503e-16 112656.20 3 
108978.26 1.4365e-16 113261.10 3 
109560.18 1.6819e-16 113865.90 3 
110142.12 1.9737e-16 114470.70 3 
110724.14 2.2324e-16 115075.60 3 
111306.07 2.9869e-16 115680.40 3 
111888.00 4.7015e-16 116285.20 3 
112470.02 5.7441e-16 116890.09 3 
113051.96 5.3122e-16 117494.90 3 
113633.88 4.3735e-16 118099.70 3 
114215.91 3.6197e-16 118704.59 3 
114797.84 3.1176e-16 119309.40 3 
115379.88 2.8180e-16 119914.30 3 
115961.80 2.5903e-16 120519.10 3 
116543.73 2.3999e-16 121123.90 3 
117125.76 2.3222e-16 121728.80 3 
117707.69 2.3567e-16 122333.60 3 
118289.62 2.4385e-16 122938.41 3 
118871.64 2.5693e-16 123543.30 3 
119453.58 2.6903e-16 124148.10 3 
120035.51 2.7404e-16 124752.91 3 
120617.53 2.6900e-16 125357.80 3 
121199.46 2.6391e-16 125962.60 3 
121781.49 2.6208e-16 126567.50 3 
122363.41 2.7693e-16 127172.30 3 
122945.35 2.9694e-16 127777.10 3 
123527.37 2.9970e-16 128382.00 3 
124109.30 3.0204e-16 128986.80 3 
124691.24 3.0920e-16 129591.60 3 
125273.27 3.2685e-16 130196.51 3 
125855.19 3.4615e-16 130801.30 3 
126437.12 3.6028e-16 131406.09 3 
127019.15 3.7906e-16 132011.00 3 
127601.07 4.7178e-16 132615.80 3 
128183.00 5.7310e-16 133220.59 3 
128765.03 4.1463e-16 133825.50 3 
129346.96 2.6099e-16 134430.30 3 
129928.99 2.3161e-16 135035.20 3 
130510.92 2.2493e-16 135640.00 3 
131092.85 2.2175e-16 136244.80 3 
131674.88 2.1884e-16 136849.70 3 
132256.81 2.1909e-16 137454.50 3 
132838.73 2.1781e-16 138059.30 3 
133420.77 2.1476e-16 138664.20 3 
134002.69 2.1098e-16 139269.00 3 
134584.62 2.0564e-16 139873.80 3 
135166.65 2.0821e-16 140478.70 3 
135748.58 2.0420e-16 141083.50 3 
136330.61 1.9912e-16 141688.41 3 
136912.54 1.9187e-16 142293.20 3 
137494.47 1.8108e-16 142898.00 3 
138076.50 1.7222e-16 143502.91 3 
138658.43 1.6375e-16 144107.70 3 
139240.35 1.5949e-16 144712.50 3 
140261.80 1.7821e-16 145774.09 3 
141076.60 1.7991e-16 146620.91 3 
141891.37 1.8497e-16 147467.70 3 
142706.15 1.7981e-16 148314.50 3 
143520.83 1.7622e-16 149161.20 3 
144335.61 1.7221e-16 150008.00 3 
145150.39 1.6903e-16 150854.80 3 
145965.07 1.6488e-16 151701.50 3 
146779.85 1.6596e-16 152548.30 3 
147594.62 1.6345e-16 153395.09 3 
148409.31 1.5998e-16 154241.80 3 
149224.09 1.5925e-16 155088.59 3 
150038.88 1.5993e-16 155935.41 3 
150853.56 1.5758e-16 156782.11 3 
151668.34 1.5516e-16 157628.91 3 
152483.12 1.5581e-16 158475.70 3 
153297.79 1.5423e-16 159322.39 3 
154112.58 1.5693e-16 160169.20 3 
154927.35 1.6501e-16 161016.00 3 
155742.13 1.8208e-16 161862.80 3 
156556.82 1.6624e-16 162709.50 3 
157371.61 1.6353e-16 163556.31 3 
158186.37 1.6160e-16 164403.09 3 
159001.07 1.6210e-16 165249.81 3 
159815.83 1.6104e-16 166096.59 3 
160630.61 1.6093e-16 166943.39 3 
161445.31 1.6136e-16 167790.11 3 
162260.07 1.6502e-16 168636.89 3 
163074.86 1.7855e-16 169483.70 3 
163889.53 2.0024e-16 170330.39 3 
164704.32 2.0244e-16 171177.20 3 
165519.10 1.9271e-16 172024.00 3 
166333.77 1.9050e-16 172870.69 3 
167148.56 1.9278e-16 173717.50 3 
167963.34 1.9128e-16 174564.30 3 
168778.11 1.9046e-16 175411.09 3 
169592.80 2.1415e-16 176257.80 3 
170407.59 2.2968e-16 177104.61 3 
171222.35 2.1079e-16 177951.39 3 
172037.05 1.8780e-16 178798.11 3 
172851.83 1.8778e-16 179644.91 3 
173666.61 1.8743e-16 180491.70 3 
174481.29 1.8089e-16 181338.41 3 
175296.05 1.6788e-16 182185.19 3 
176110.84 1.6118e-16 183032.00 3 
176925.53 1.6036e-16 183878.70 3 
177740.31 1.6012e-16 184725.50 3 
178555.08 1.5737e-16 185572.30 3 
179369.75 1.5245e-16 186418.98 3 
180184.54 1.4948e-16 187265.80 3 
180999.34 1.4778e-16 188112.61 3 
181814.11 1.4648e-16 188959.41 3 
182628.78 1.4574e-16 189806.09 3 
183443.57 1.4526e-16 190652.91 3 
184258.33 1.4830e-16 191499.69 3 
185073.04 1.5088e-16 192346.41 3 
185887.81 1.5376e-16 193193.20 3 
186702.59 1.7928e-16 194040.00 3 
187517.27 1.9775e-16 194886.70 3 
188332.07 1.6336e-16 195733.52 3 
189146.83 1.5942e-16 196580.30 3 
189961.51 1.5599e-16 197427.00 3 
190776.29 1.5787e-16 198273.80 3 
191591.06 1.5877e-16 199120.59 3 
192405.77 1.5654e-16 199967.31 3 
193220.53 1.5665e-16 200814.09 3 
194035.32 1.6234e-16 201660.91 3 
194850.09 1.5858e-16 202507.70 3 
195664.77 1.6085e-16 203354.39 3 
196479.56 1.6243e-16 204201.20 3 
198109.02 1.6107e-16 205894.70 3 
199738.57 1.6704e-16 207588.30 3 
201368.05 1.7144e-16 209281.81 3 
202997.50 1.7446e-16 210975.30 3 
204627.05 1.7861e-16 212668.89 3 
206256.51 1.8589e-16 214362.39 3 
207886.08 1.8575e-16 216056.00 3 
209515.54 1.8585e-16 217749.50 3 
211145.00 1.9049e-16 219443.00 3 
212774.57 1.9632e-16 221136.61 3 
214404.03 1.9347e-16 222830.11 3 
216033.48 1.9554e-16 224523.59 3 
217663.03 2.0348e-16 226217.19 3 
219292.51 2.0547e-16 227910.70 3 
220922.06 2.0711e-16 229604.30 3 
222551.52 2.0806e-16 231297.80 3 
224180.98 2.1369e-16 232991.30 3 
225810.55 2.1778e-16 234684.91 3 
227440.01 2.2274e-16 236378.41 3 
229069.48 2.2371e-16 238071.91 3 
230699.01 2.2440e-16 239765.48 3 
232328.49 2.2925e-16 241459.00 3 
233958.04 2.3428e-16 243152.59 3 
235587.50 2.3539e-16 244846.09 3 
237216.97 2.4236e-16 246539.59 3 
238846.53 2.4430e-16 248233.20 3 
240476.00 2.4592e-16 249926.70 3 
242105.46 2.4875e-16 251620.20 3 
243735.03 2.5327e-16 253313.81 3 
245364.49 2.5707e-16 255007.31 3 
246994.03 2.5860e-16 256700.89 3 
248623.49 2.6092e-16 258394.39 3 
250252.95 2.6741e-16 260087.89 3 
251882.52 2.7003e-16 261781.50 3 
253511.98 2.7351e-16 263475.00 3 
255141.44 2.7485e-16 265168.50 3 
256770.99 2.7964e-16 266862.09 3 
258400.46 2.8885e-16 268555.59 3 
260030.01 2.9640e-16 270249.19 3 
261659.47 2.9461e-16 271942.69 3 
263288.96 2.9552e-16 273636.22 3 
264918.51 2.9819e-16 275329.81 3 
266547.95 3.0124e-16 277023.28 3 
268177.41 3.0552e-16 278716.78 3 
269806.99 3.0650e-16 280410.41 3 
271436.45 3.1032e-16 282103.91 3 
273066.01 3.1019e-16 283797.50 3 
274695.47 3.1838e-16 285491.00 3 
276324.93 3.2566e-16 287184.50 3 
277954.48 3.2696e-16 288878.09 3 
279583.94 3.3074e-16 290571.59 3 
281213.41 3.3601e-16 292265.09 3 
282842.96 3.3968e-16 293958.69 3 
284472.42 3.4042e-16 295652.19 3 
286101.97 3.4608e-16 297345.78 3 
287731.47 3.5116e-16 299039.31 3 
289360.93 3.5092e-16 300732.81 3 
290990.48 3.5228e-16 302426.41 3 
292619.94 3.5317e-16 304119.91 3 
294249.40 3.5628e-16 305813.41 3 
295878.96 3.6571e-16 307507.00 3 
297508.42 3.7152e-16 309200.50 3 
299137.97 3.6720e-16 310894.09 3 
300767.43 3.7216e-16 312587.59 3 
302396.90 3.7444e-16 314281.09 3 
304026.45 3.8530e-16 315974.69 3 
305655.94 3.8489e-16 317668.22 3 
307285.40 3.8380e-16 319361.72 3 
308914.95 3.8466e-16 321055.31 3 
310544.39 3.9172e-16 322748.78 3 
312173.97 3.9796e-16 324442.41 3 
313803.43 4.0355e-16 326135.91 3 
315432.89 4.0185e-16 327829.41 3 
317062.45 4.0364e-16 329523.00 3 
318691.91 4.1167e-16 331216.50 3 
320321.37 4.2290e-16 332910.00 3 
321950.95 4.2268e-16 334603.62 3 
323580.41 4.1393e-16 336297.12 3 
325209.94 4.2815e-16 337990.69 3 
326839.40 4.5629e-16 339684.19 3 
328468.89 4.3479e-16 341377.72 3 
330098.41 4.3324e-16 343071.28 3 
331727.88 4.4318e-16 344764.78 3 
333357.34 4.7237e-16 346458.28 3 
334986.92 4.9043e-16 348151.91 3 
336616.35 4.6948e-16 349845.38 3 
